@MEASUREMENT_RADIUS 2.3 cm
# lambda : Angstroms 
# tr : transmission ([0,1]) 
# end
4015 0
4020 0.000720893
4025 0.00256395
4030 0.00374558
4035 0.00412396
4040 0.00458674
4045 0.00519909
4050 0.00605219
4055 0.00727259
4060 0.00902237
4065 0.0115425
4070 0.0151518
4075 0.0201904
4080 0.0269995
4085 0.0356287
4090 0.0458771
4095 0.0574373
4100 0.0697439
4105 0.0826127
4110 0.0963497
4115 0.111812
4120 0.131161
4125 0.157151
4130 0.193676
4135 0.245775
4140 0.316428
4145 0.406566
4150 0.511502
4155 0.619482
4160 0.716788
4165 0.79084
4170 0.83607
4175 0.856137
4180 0.860276
4185 0.858874
4190 0.859225
4195 0.863225
4200 0.868165
4205 0.869038
4210 0.861299
4215 0.842672
4220 0.814193
4225 0.779368
4230 0.743309
4235 0.71159
4240 0.688315
4245 0.676432
4250 0.677298
4255 0.690825
4260 0.715633
4265 0.749256
4270 0.78761
4275 0.825435
4280 0.858243
4285 0.882188
4290 0.894995
4295 0.896681
4300 0.889318
4305 0.876402
4310 0.862013
4315 0.850059
4320 0.84332
4325 0.843396
4330 0.85061
4335 0.863761
4340 0.88024
4345 0.896677
4350 0.909515
4355 0.91574
4360 0.913523
4365 0.902609
4370 0.884406
4375 0.861515
4380 0.837248
4385 0.814555
4390 0.795524
4395 0.78151
4400 0.773
4405 0.769913
4410 0.771869
4415 0.778484
4420 0.788998
4425 0.802454
4430 0.817907
4435 0.834015
4440 0.84969
4445 0.863948
4450 0.875918
4455 0.885377
4460 0.892444
4465 0.897512
4470 0.901143
4475 0.903663
4480 0.905117
4485 0.905206
4490 0.903103
4495 0.898038
4500 0.889821
4505 0.87867
4510 0.865535
4515 0.851909
4520 0.839397
4525 0.829632
4530 0.823645
4535 0.821769
4540 0.823673
4545 0.828339
4550 0.834387
4555 0.84035
4560 0.845135
4565 0.848076
4570 0.849135
4575 0.848719
4580 0.847572
4585 0.846485
4590 0.845917
4595 0.846041
4600 0.846729
4605 0.847697
4610 0.848558
4615 0.849168
4620 0.849681
4625 0.850315
4630 0.85132
4635 0.852877
4640 0.854836
4645 0.856824
4650 0.858182
4655 0.858124
4660 0.856078
4665 0.851837
4670 0.845759
4675 0.838601
4680 0.831366
4685 0.825364
4690 0.821639
4695 0.820683
4700 0.822585
4705 0.826766
4710 0.832191
4715 0.837799
4720 0.842673
4725 0.846211
4730 0.848451
4735 0.849858
4740 0.851168
4745 0.85331
4750 0.856974
4755 0.862413
4760 0.869506
4765 0.877524
4770 0.885309
4775 0.891703
4780 0.895804
4785 0.897175
4790 0.896016
4795 0.893224
4800 0.889997
4805 0.887509
4810 0.886877
4815 0.888765
4820 0.893149
4825 0.899313
4830 0.906115
4835 0.912112
4840 0.915958
4845 0.916687
4850 0.913766
4855 0.907223
4860 0.897715
4865 0.886138
4870 0.873483
4875 0.860762
4880 0.848644
4885 0.837739
4890 0.828403
4895 0.820803
4900 0.815216
4905 0.811894
4910 0.811284
4915 0.813847
4920 0.819865
4925 0.829209
4930 0.841407
4935 0.855628
4940 0.87045
4945 0.883945
4950 0.894004
4955 0.898608
4960 0.896472
4965 0.887043
4970 0.870662
4975 0.848838
4980 0.823799
4985 0.798055
4990 0.774028
4995 0.75364
5000 0.738028
5005 0.728081
5010 0.724058
5015 0.725609
5020 0.732382
5025 0.743651
5030 0.758443
5035 0.775817
5040 0.7949
5045 0.814686
5050 0.834155
5055 0.85224
5060 0.867933
5065 0.880136
5070 0.887848
5075 0.890119
5080 0.886629
5085 0.877416
5090 0.863024
5095 0.844607
5100 0.823795
5105 0.802455
5110 0.782454
5115 0.765511
5120 0.752958
5125 0.745679
5130 0.744197
5135 0.748238
5140 0.757017
5145 0.769204
5150 0.783266
5155 0.797515
5160 0.810233
5165 0.819923
5170 0.825498
5175 0.826634
5180 0.823677
5185 0.817581
5190 0.809658
5195 0.80126
5200 0.793719
5205 0.788023
5210 0.784707
5215 0.783734
5220 0.784633
5225 0.786644
5230 0.788717
5235 0.789953
5240 0.789711
5245 0.787904
5250 0.784709
5255 0.780861
5260 0.777394
5265 0.77549
5270 0.776247
5275 0.780656
5280 0.789249
5285 0.801866
5290 0.817869
5295 0.835843
5300 0.853966
5305 0.869883
5310 0.881408
5315 0.886345
5320 0.883454
5325 0.872508
5330 0.854462
5335 0.831266
5340 0.805395
5345 0.779737
5350 0.756892
5355 0.738892
5360 0.726924
5365 0.721484
5370 0.722454
5375 0.729162
5380 0.740547
5385 0.755029
5390 0.770898
5395 0.786518
5400 0.800424
5405 0.811477
5410 0.819169
5415 0.823668
5420 0.825694
5425 0.82627
5430 0.826413
5435 0.826712
5440 0.827172
5445 0.827186
5450 0.825333
5455 0.819836
5460 0.808776
5465 0.790933
5470 0.765987
5475 0.734584
5480 0.698666
5485 0.660713
5490 0.623618
5495 0.589886
5500 0.561547
5505 0.539992
5510 0.525867
5515 0.519428
5520 0.52018
5525 0.52726
5530 0.539161
5535 0.55378
5540 0.568697
5545 0.581235
5550 0.588983
5555 0.590203
5560 0.584639
5565 0.573287
5570 0.558267
5575 0.542128
5580 0.527061
5585 0.514534
5590 0.504916
5595 0.497447
5600 0.490113
5605 0.480232
5610 0.465071
5615 0.442724
5620 0.412438
5625 0.375605
5630 0.334793
5635 0.293202
5640 0.253799
5645 0.218782
5650 0.189443
5655 0.165779
5660 0.147243
5665 0.132814
5670 0.121396
5675 0.111939
5680 0.103754
5685 0.096002
5690 0.0881774
5695 0.0798198
5700 0.0710765
5705 0.0622362
5710 0.053654
5715 0.0457311
5720 0.0387086
5725 0.0327184
5730 0.0277858
5735 0.0237936
5740 0.0206186
5745 0.0180945
5750 0.0160779
5755 0.0144394
5760 0.0130529
5765 0.0118236
5770 0.01068
5775 0.0095737
5780 0.00849425
5785 0.00744324
5790 0.00644166
5795 0.00549798
5800 0.00464043
5805 0.00332683
5810 0.00170255
5815 0.00035354
