@MEASUREMENT_RADIUS 7 cm
# lambda : Angstroms 
# tr : transmission ([0,1]) 
# end
3990 0
3995 0.000687529
4000 0.00260885
4005 0.00401129
4010 0.00461219
4015 0.00519103
4020 0.00574202
4025 0.00630129
4030 0.00693948
4035 0.00773658
4040 0.00883318
4045 0.0104017
4050 0.0126726
4055 0.0159763
4060 0.0206883
4065 0.0273427
4070 0.0364846
4075 0.0483868
4080 0.0630079
4085 0.0795849
4090 0.0970052
4095 0.114424
4100 0.131333
4105 0.148358
4110 0.167165
4115 0.190185
4120 0.220908
4125 0.262504
4130 0.318278
4135 0.390814
4140 0.478463
4145 0.576428
4150 0.675791
4155 0.764935
4160 0.83503
4165 0.881741
4170 0.906842
4175 0.916736
4180 0.918684
4185 0.918462
4190 0.91889
4195 0.919937
4200 0.919708
4205 0.915691
4210 0.906106
4215 0.890383
4220 0.869673
4225 0.846304
4230 0.823335
4235 0.804144
4240 0.791299
4245 0.786452
4250 0.790215
4255 0.802162
4260 0.820898
4265 0.844279
4270 0.869308
4275 0.892842
4280 0.912504
4285 0.926531
4290 0.934106
4295 0.935411
4300 0.931423
4305 0.923707
4310 0.913863
4315 0.903509
4320 0.894001
4325 0.886161
4330 0.880368
4335 0.876476
4340 0.874009
4345 0.872199
4350 0.870476
4355 0.868431
4360 0.865919
4365 0.863351
4370 0.861244
4375 0.860159
4380 0.860487
4385 0.862459
4390 0.866082
4395 0.871023
4400 0.876837
4405 0.883046
4410 0.889113
4415 0.894802
4420 0.899847
4425 0.904063
4430 0.907483
4435 0.910049
4440 0.912001
4445 0.913625
4450 0.915064
4455 0.916432
4460 0.917714
4465 0.918675
4470 0.918859
4475 0.917516
4480 0.914012
4485 0.908161
4490 0.900044
4495 0.890333
4500 0.880211
4505 0.871027
4510 0.864224
4515 0.860977
4520 0.861812
4525 0.866759
4530 0.875254
4535 0.886164
4540 0.897963
4545 0.909176
4550 0.918725
4555 0.92576
4560 0.930254
4565 0.932822
4570 0.934132
4575 0.934808
4580 0.935457
4585 0.936461
4590 0.937627
4595 0.93857
4600 0.939082
4605 0.939067
4610 0.938505
4615 0.937508
4620 0.936359
4625 0.93518
4630 0.933911
4635 0.93238
4640 0.930172
4645 0.927011
4650 0.922668
4655 0.917128
4660 0.910934
4665 0.904801
4670 0.899412
4675 0.89546
4680 0.893377
4685 0.893219
4690 0.894473
4695 0.896257
4700 0.897571
4705 0.897519
4710 0.895632
4715 0.892061
4720 0.887459
4725 0.88292
4730 0.87975
4735 0.879045
4740 0.881462
4745 0.887163
4750 0.895738
4755 0.906162
4760 0.917068
4765 0.92689
4770 0.934229
4775 0.938328
4780 0.939191
4785 0.93747
4790 0.934131
4795 0.930464
4800 0.927598
4805 0.926251
4810 0.926705
4815 0.928712
4820 0.931605
4825 0.934571
4830 0.936812
4835 0.937734
4840 0.937135
4845 0.935228
4850 0.932365
4855 0.928967
4860 0.92561
4865 0.922577
4870 0.919897
4875 0.91754
4880 0.91538
4885 0.913381
4890 0.911581
4895 0.910169
4900 0.909593
4905 0.910355
4910 0.912931
4915 0.917493
4920 0.923878
4925 0.931381
4930 0.938865
4935 0.944931
4940 0.948047
4945 0.946902
4950 0.940751
4955 0.929547
4960 0.914047
4965 0.895531
4970 0.875603
4975 0.856054
4980 0.838703
4985 0.824772
4990 0.814987
4995 0.809556
5000 0.808153
5005 0.810246
5010 0.814971
5015 0.821365
5020 0.828575
5025 0.835718
5030 0.842127
5035 0.847429
5040 0.851494
5045 0.85427
5050 0.855734
5055 0.855793
5060 0.854428
5065 0.851575
5070 0.847189
5075 0.841304
5080 0.834106
5085 0.825982
5090 0.817597
5095 0.809626
5100 0.802817
5105 0.79788
5110 0.795314
5115 0.795267
5120 0.797592
5125 0.801781
5130 0.806941
5135 0.811865
5140 0.815301
5145 0.816331
5150 0.814406
5155 0.80937
5160 0.80165
5165 0.792231
5170 0.782436
5175 0.773612
5180 0.767072
5185 0.763864
5190 0.764793
5195 0.770218
5200 0.77982
5205 0.79286
5210 0.808314
5215 0.824744
5220 0.840427
5225 0.853861
5230 0.863829
5235 0.869504
5240 0.870926
5245 0.868822
5250 0.864371
5255 0.858944
5260 0.853875
5265 0.850075
5270 0.848048
5275 0.84776
5280 0.848679
5285 0.849758
5290 0.849816
5295 0.847674
5300 0.842424
5305 0.833667
5310 0.821671
5315 0.807144
5320 0.791395
5325 0.776086
5330 0.763025
5335 0.753717
5340 0.74946
5345 0.751051
5350 0.758731
5355 0.772137
5360 0.790101
5365 0.811012
5370 0.832812
5375 0.853199
5380 0.869678
5385 0.880344
5390 0.884191
5395 0.881171
5400 0.872383
5405 0.859614
5410 0.845087
5415 0.83084
5420 0.818498
5425 0.808848
5430 0.801785
5435 0.796383
5440 0.791084
5445 0.783977
5450 0.773264
5455 0.757847
5460 0.737437
5465 0.712832
5470 0.685613
5475 0.657965
5480 0.632174
5485 0.61037
5490 0.594308
5495 0.585026
5500 0.583093
5505 0.588277
5510 0.599685
5515 0.615634
5520 0.633577
5525 0.65036
5530 0.662611
5535 0.667518
5540 0.663277
5545 0.649987
5550 0.629357
5555 0.604344
5560 0.578538
5565 0.555235
5570 0.536646
5575 0.523383
5580 0.514643
5585 0.508319
5590 0.50135
5595 0.490358
5600 0.472562
5605 0.446455
5610 0.412392
5615 0.372518
5620 0.329979
5625 0.288436
5630 0.250667
5635 0.218385
5640 0.191926
5645 0.170943
5650 0.154636
5655 0.14179
5660 0.131228
5665 0.121821
5670 0.11263
5675 0.102974
5680 0.092896
5685 0.0824024
5690 0.0718755
5695 0.0615342
5700 0.0520352
5705 0.0437257
5710 0.0367336
5715 0.03106
5720 0.0265275
5725 0.0229522
5730 0.0201469
5735 0.0179142
5740 0.0161065
5745 0.0145855
5750 0.0132375
5755 0.0119828
5760 0.0107644
5765 0.009556
5770 0.00835475
5775 0.00718375
5780 0.00608905
5785 0.00510702
5790 0.00366514
5795 0.0018713
5800 0.000392058
