@MEASUREMENT_RADIUS 9.3 cm
# lambda : Angstroms 
# tr : transmission ([0,1]) 
# end
3990 0
3995 0.000679835
4000 0.00258867
4005 0.00399702
4010 0.00462751
4015 0.00524718
4020 0.00583809
4025 0.00643019
4030 0.00708456
4035 0.00788422
4040 0.00897373
4045 0.0105138
4050 0.0127242
4055 0.0159286
4060 0.0204952
4065 0.0269544
4070 0.0358898
4075 0.0476587
4080 0.062349
4085 0.0793133
4090 0.0975215
4095 0.116082
4100 0.134261
4105 0.152494
4110 0.172236
4115 0.195685
4120 0.226292
4125 0.267285
4130 0.321903
4135 0.392795
4140 0.478452
4145 0.574539
4150 0.673012
4155 0.762409
4160 0.833535
4165 0.881587
4170 0.907801
4175 0.918317
4180 0.92038
4185 0.919916
4190 0.920143
4195 0.921307
4200 0.921712
4205 0.918874
4210 0.91067
4215 0.896256
4220 0.876515
4225 0.853716
4230 0.830933
4235 0.811569
4240 0.798138
4245 0.792385
4250 0.795095
4255 0.805912
4260 0.823433
4265 0.845592
4270 0.869666
4275 0.892553
4280 0.911936
4285 0.92615
4290 0.934273
4295 0.936355
4300 0.9333
4305 0.92652
4310 0.91759
4315 0.908106
4320 0.89936
4325 0.89222
4330 0.887033
4335 0.883629
4340 0.881609
4345 0.880163
4350 0.878545
4355 0.876569
4360 0.874194
4365 0.871674
4370 0.869607
4375 0.868622
4380 0.869136
4385 0.871314
4390 0.875019
4395 0.879866
4400 0.885476
4405 0.891297
4410 0.896869
4415 0.902075
4420 0.906666
4425 0.910397
4430 0.913387
4435 0.915714
4440 0.917547
4445 0.919055
4450 0.920361
4455 0.921628
4460 0.92277
4465 0.923468
4470 0.923272
4475 0.92146
4480 0.917439
4485 0.911015
4490 0.902377
4495 0.892275
4500 0.882004
4505 0.872949
4510 0.866437
4515 0.863559
4520 0.864834
4525 0.870226
4530 0.879016
4535 0.890049
4540 0.901813
4545 0.912837
4550 0.922044
4555 0.928716
4560 0.932894
4565 0.935077
4570 0.935959
4575 0.936311
4580 0.936709
4585 0.937371
4590 0.938136
4595 0.938717
4600 0.938882
4605 0.938499
4610 0.937608
4615 0.936386
4620 0.935114
4625 0.933952
4630 0.932765
4635 0.931323
4640 0.929317
4645 0.92642
4650 0.922335
4655 0.917136
4660 0.911285
4665 0.905428
4670 0.900287
4675 0.896521
4680 0.894503
4685 0.894163
4690 0.895014
4695 0.896202
4700 0.896749
4705 0.895949
4710 0.893462
4715 0.889464
4720 0.884715
4725 0.880375
4730 0.877614
4735 0.877423
4740 0.880507
4745 0.88686
4750 0.895868
4755 0.906434
4760 0.917208
4765 0.926654
4770 0.933475
4775 0.937063
4780 0.937508
4785 0.935501
4790 0.93216
4795 0.928783
4800 0.926443
4805 0.925839
4810 0.927159
4815 0.930051
4820 0.933766
4825 0.937426
4830 0.940199
4835 0.941551
4840 0.941235
4845 0.939388
4850 0.93643
4855 0.932804
4860 0.929043
4865 0.925473
4870 0.922103
4875 0.918949
4880 0.915952
4885 0.913078
4890 0.910467
4895 0.908385
4900 0.907342
4905 0.907805
4910 0.91025
4915 0.914883
4920 0.921494
4925 0.929248
4930 0.937024
4935 0.943404
4940 0.946817
4945 0.945974
4950 0.940171
4955 0.929326
4960 0.91427
4965 0.896343
4970 0.877107
4975 0.858235
4980 0.841491
4985 0.828118
4990 0.818774
4995 0.813631
5000 0.812371
5005 0.814373
5010 0.818771
5015 0.824628
5020 0.831183
5025 0.837653
5030 0.843441
5035 0.848193
5040 0.851841
5045 0.854419
5050 0.855961
5055 0.856356
5060 0.855544
5065 0.853417
5070 0.849882
5075 0.844833
5080 0.838437
5085 0.831063
5090 0.823252
5095 0.81569
5100 0.809137
5105 0.804278
5110 0.801594
5115 0.801357
5120 0.803508
5125 0.807573
5130 0.812751
5135 0.8179
5140 0.821761
5145 0.823396
5150 0.822217
5155 0.818042
5160 0.811176
5165 0.802517
5170 0.793275
5175 0.784756
5180 0.778252
5185 0.774796
5190 0.775165
5195 0.779741
5200 0.788377
5205 0.800449
5210 0.815006
5215 0.830754
5220 0.846113
5225 0.859685
5230 0.870187
5235 0.876816
5240 0.879436
5245 0.878656
5250 0.875311
5255 0.870608
5260 0.865794
5265 0.861772
5270 0.859039
5275 0.857657
5280 0.857191
5285 0.85675
5290 0.855384
5295 0.852154
5300 0.846292
5305 0.83752
5310 0.826093
5315 0.81263
5320 0.798232
5325 0.784435
5330 0.772873
5335 0.764898
5340 0.761646
5345 0.763908
5350 0.771865
5355 0.785087
5360 0.802415
5365 0.822354
5370 0.842925
5375 0.861975
5380 0.877261
5385 0.887148
5390 0.890706
5395 0.887946
5400 0.879886
5405 0.868167
5410 0.854769
5415 0.841581
5420 0.830026
5425 0.820736
5430 0.81358
5435 0.80768
5440 0.80148
5445 0.793208
5450 0.781331
5455 0.76499
5460 0.744016
5465 0.719306
5470 0.692466
5475 0.66563
5480 0.64099
5485 0.620565
5490 0.605992
5495 0.598144
5500 0.597514
5505 0.603768
5510 0.6159
5515 0.632064
5520 0.649636
5525 0.665472
5530 0.676343
5535 0.679623
5540 0.673843
5545 0.659354
5550 0.638035
5555 0.612918
5560 0.587555
5565 0.565085
5570 0.547542
5575 0.535393
5580 0.5277
5585 0.522177
5590 0.515731
5595 0.504992
5600 0.487135
5605 0.4607
5610 0.426154
5615 0.385799
5620 0.342785
5625 0.300769
5630 0.262548
5635 0.22984
5640 0.202907
5645 0.181381
5650 0.164442
5655 0.150868
5660 0.139408
5665 0.128939
5670 0.118525
5675 0.107564
5680 0.0962144
5685 0.0846153
5690 0.0732288
5695 0.0622589
5700 0.0523767
5705 0.043869
5710 0.0368052
5715 0.0311332
5720 0.0266425
5725 0.0231187
5730 0.0203595
5735 0.0181584
5740 0.0163699
5745 0.0148514
5750 0.0134974
5755 0.0122271
5760 0.0109832
5765 0.00973884
5770 0.00850079
5775 0.00730194
5780 0.00618578
5785 0.00518589
5790 0.00432405
5795 0.00309539
5800 0.00157856
5805 0.000330989
