@MEASUREMENT_RADIUS 14 cm
# lambda : Angstroms 
# tr : transmission ([0,1]) 
# end
3990 0
3995 0.000805254
4000 0.00300798
4005 0.00462234
4010 0.00532575
4015 0.00601869
4020 0.00670046
4025 0.00741811
4030 0.00825657
4035 0.00931552
4040 0.0107717
4045 0.0128457
4050 0.0158253
4055 0.020117
4060 0.0261931
4065 0.0346788
4070 0.0461862
4075 0.0609913
4080 0.0789551
4085 0.0991569
4090 0.120427
4095 0.141989
4100 0.163392
4105 0.1857
4110 0.211133
4115 0.242383
4120 0.283211
4125 0.336347
4130 0.40369
4135 0.486011
4140 0.57842
4145 0.673147
4150 0.761086
4155 0.832267
4160 0.881565
4165 0.90918
4170 0.919941
4175 0.921217
4180 0.919583
4185 0.91907
4190 0.920517
4195 0.922302
4200 0.921771
4205 0.916438
4210 0.904991
4215 0.887759
4220 0.866931
4225 0.845651
4230 0.827031
4235 0.813927
4240 0.807931
4245 0.809631
4250 0.818626
4255 0.83372
4260 0.85299
4265 0.87423
4270 0.894933
4275 0.912778
4280 0.926378
4285 0.934854
4290 0.938078
4295 0.936668
4300 0.931843
4305 0.925108
4310 0.917797
4315 0.911201
4320 0.906074
4325 0.902583
4330 0.900483
4335 0.899258
4340 0.898214
4345 0.896756
4350 0.894693
4355 0.892285
4360 0.890017
4365 0.888475
4370 0.88825
4375 0.889684
4380 0.892748
4385 0.897072
4390 0.902153
4395 0.907421
4400 0.912472
4405 0.91692
4410 0.920507
4415 0.923395
4420 0.925649
4425 0.927293
4430 0.928622
4435 0.929726
4440 0.930742
4445 0.931793
4450 0.932846
4455 0.933647
4460 0.933788
4465 0.932726
4470 0.929858
4475 0.924696
4480 0.917207
4485 0.907912
4490 0.897782
4495 0.888117
4500 0.880385
4505 0.875736
4510 0.874878
4515 0.878048
4520 0.884743
4525 0.89404
4530 0.904669
4535 0.915173
4540 0.924353
4545 0.931404
4550 0.93603
4555 0.938464
4560 0.939378
4565 0.939466
4570 0.939373
4575 0.939387
4580 0.939457
4585 0.939393
4590 0.938966
4595 0.937979
4600 0.936473
4605 0.934659
4610 0.932839
4615 0.931148
4620 0.929629
4625 0.928218
4630 0.926601
4635 0.924393
4640 0.921308
4645 0.917326
4650 0.912626
4655 0.907636
4660 0.903014
4665 0.899279
4670 0.896793
4675 0.895651
4680 0.895549
4685 0.895882
4690 0.895857
4695 0.89483
4700 0.892457
4705 0.888861
4710 0.884655
4715 0.880804
4720 0.878289
4725 0.878088
4730 0.880842
4735 0.886568
4740 0.894803
4745 0.904589
4750 0.914589
4755 0.923381
4760 0.929885
4765 0.933445
4770 0.934005
4775 0.932135
4780 0.92886
4785 0.92551
4790 0.923223
4795 0.922836
4800 0.924596
4805 0.928239
4810 0.933127
4815 0.938413
4820 0.943202
4825 0.946716
4830 0.94846
4835 0.948385
4840 0.946693
4845 0.94372
4850 0.939894
4855 0.935525
4860 0.930921
4865 0.926152
4870 0.921212
4875 0.916202
4880 0.911351
4885 0.9071
4890 0.903901
4895 0.902251
4900 0.902714
4905 0.905584
4910 0.910797
4915 0.917868
4920 0.925779
4925 0.933075
4930 0.938324
4935 0.940289
4940 0.938
4945 0.931118
4950 0.920068
4955 0.905851
4960 0.889842
4965 0.873592
4970 0.858527
4975 0.845769
4980 0.836236
4985 0.83031
4990 0.827819
4995 0.828267
5000 0.830916
5005 0.835049
5010 0.839834
5015 0.844621
5020 0.849028
5025 0.852818
5030 0.855909
5035 0.85837
5040 0.860315
5045 0.861719
5050 0.862488
5055 0.862454
5060 0.86148
5065 0.859344
5070 0.855921
5075 0.851342
5080 0.845999
5085 0.840361
5090 0.835025
5095 0.830629
5100 0.827774
5105 0.826832
5110 0.827937
5115 0.830838
5120 0.835052
5125 0.839795
5130 0.844123
5135 0.847
5140 0.847651
5145 0.845773
5150 0.841456
5155 0.835107
5160 0.827487
5165 0.819732
5170 0.812992
5175 0.808257
5180 0.806319
5185 0.807729
5190 0.812619
5195 0.820793
5200 0.831597
5205 0.844071
5210 0.857172
5215 0.869811
5220 0.880822
5225 0.889396
5230 0.895037
5235 0.897575
5240 0.897445
5245 0.895484
5250 0.89234
5255 0.88866
5260 0.885003
5265 0.881581
5270 0.878334
5275 0.874921
5280 0.870833
5285 0.865417
5290 0.858377
5295 0.849575
5300 0.83921
5305 0.827847
5310 0.816364
5315 0.805693
5320 0.796902
5325 0.791112
5330 0.789286
5335 0.791866
5340 0.799094
5345 0.810729
5350 0.825843
5355 0.843063
5360 0.860694
5365 0.876977
5370 0.89016
5375 0.899044
5380 0.902737
5385 0.901292
5390 0.895461
5395 0.88651
5400 0.875873
5405 0.864966
5410 0.854894
5415 0.84614
5420 0.83863
5425 0.831579
5430 0.823825
5435 0.814023
5440 0.801047
5445 0.784219
5450 0.763619
5455 0.740193
5460 0.715481
5465 0.691386
5470 0.669781
5475 0.652468
5480 0.640697
5485 0.635301
5490 0.636572
5495 0.643953
5500 0.656272
5505 0.671403
5510 0.686658
5515 0.698969
5520 0.705631
5525 0.70459
5530 0.695196
5535 0.678291
5540 0.655889
5545 0.630997
5550 0.606819
5555 0.586072
5560 0.570324
5565 0.560017
5570 0.55412
5575 0.550253
5580 0.545159
5585 0.535403
5590 0.51817
5595 0.492106
5600 0.457761
5605 0.417357
5610 0.374137
5615 0.331523
5620 0.292281
5625 0.258172
5630 0.229653
5635 0.206404
5640 0.187337
5645 0.171249
5650 0.156979
5655 0.143399
5660 0.129765
5665 0.115731
5670 0.101366
5675 0.0871121
5680 0.0738093
5685 0.0619648
5690 0.0518621
5695 0.0432577
5700 0.0363022
5705 0.0307932
5710 0.0264805
5715 0.0231372
5720 0.020517
5725 0.0184284
5730 0.0167163
5735 0.015238
5740 0.0138994
5745 0.0126205
5750 0.0113571
5755 0.010094
5760 0.00883805
5765 0.00761813
5770 0.00647093
5775 0.00543044
5780 0.00452804
5785 0.00325434
5790 0.00166654
5795 0.000352548
