@MEASUREMENT_RADIUS 18.6 cm
# lambda : Angstroms 
# tr : transmission ([0,1]) 
# end
3970 0
3975 0.000711532
3980 0.00268349
3985 0.00422598
3990 0.00502581
3995 0.00584363
4000 0.00666228
4005 0.00749044
4010 0.00836894
4015 0.00938614
4020 0.0106513
4025 0.0123391
4030 0.0147029
4035 0.0180811
4040 0.0230135
4045 0.0301775
4050 0.040321
4055 0.0541356
4060 0.0717917
4065 0.0931144
4070 0.117445
4075 0.143476
4080 0.17025
4085 0.197397
4090 0.225749
4095 0.25779
4100 0.296505
4105 0.345574
4110 0.407814
4115 0.483206
4120 0.569301
4125 0.659288
4130 0.744468
4135 0.817343
4140 0.870944
4145 0.903383
4150 0.918068
4155 0.920931
4160 0.919062
4165 0.917658
4170 0.918715
4175 0.921433
4180 0.923269
4185 0.921366
4190 0.913899
4195 0.90063
4200 0.882983
4205 0.86388
4210 0.846712
4215 0.833954
4220 0.827418
4225 0.827835
4230 0.834674
4235 0.846854
4240 0.862825
4245 0.880628
4250 0.898314
4255 0.914362
4260 0.927378
4265 0.936326
4270 0.940864
4275 0.941441
4280 0.938935
4285 0.934688
4290 0.929977
4295 0.925717
4300 0.9226
4305 0.920795
4310 0.91982
4315 0.918974
4320 0.917768
4325 0.915802
4330 0.912971
4335 0.909807
4340 0.907096
4345 0.905488
4350 0.905466
4355 0.907327
4360 0.910922
4365 0.915699
4370 0.921021
4375 0.92622
4380 0.930683
4385 0.934044
4390 0.936301
4395 0.937566
4400 0.938134
4405 0.93835
4410 0.938446
4415 0.938645
4420 0.939145
4425 0.939945
4430 0.940944
4435 0.94173
4440 0.941867
4445 0.940829
4450 0.938096
4455 0.933332
4460 0.926681
4465 0.918727
4470 0.910387
4475 0.90279
4480 0.897078
4485 0.894224
4490 0.894653
4495 0.898287
4500 0.904526
4505 0.912295
4510 0.920446
4515 0.92793
4520 0.933993
4525 0.93834
4530 0.941057
4535 0.942494
4540 0.943178
4545 0.943509
4550 0.943742
4555 0.943827
4560 0.943632
4565 0.942936
4570 0.94152
4575 0.939363
4580 0.936643
4585 0.933648
4590 0.930659
4595 0.927948
4600 0.925619
4605 0.923589
4610 0.921578
4615 0.919338
4620 0.916741
4625 0.913809
4630 0.910714
4635 0.907802
4640 0.905378
4645 0.903727
4650 0.902809
4655 0.902339
4660 0.90197
4665 0.901239
4670 0.899716
4675 0.897211
4680 0.893924
4685 0.890354
4690 0.887269
4695 0.885631
4700 0.886265
4705 0.889525
4710 0.895321
4715 0.903175
4720 0.912084
4725 0.920781
4730 0.928077
4735 0.933089
4740 0.935251
4745 0.934609
4750 0.931816
4755 0.927865
4760 0.924009
4765 0.921258
4770 0.920365
4775 0.92165
4780 0.925003
4785 0.929939
4790 0.935698
4795 0.941508
4800 0.946622
4805 0.950356
4810 0.952397
4815 0.952814
4820 0.951716
4825 0.949261
4830 0.945711
4835 0.941193
4840 0.935839
4845 0.929892
4850 0.923644
4855 0.917336
4860 0.911538
4865 0.906817
4870 0.903622
4875 0.902476
4880 0.903631
4885 0.90696
4890 0.912087
4895 0.918279
4900 0.92442
4905 0.929302
4910 0.931843
4915 0.931024
4920 0.926665
4925 0.919048
4930 0.908862
4935 0.897081
4940 0.884976
4945 0.873669
4950 0.864066
4955 0.856834
4960 0.852141
4965 0.849839
4970 0.849605
4975 0.850936
4980 0.853219
4985 0.855946
4990 0.858793
4995 0.861513
5000 0.864029
5005 0.866473
5010 0.868875
5015 0.871261
5020 0.873731
5025 0.876127
5030 0.878135
5035 0.879463
5040 0.879932
5045 0.879366
5050 0.87774
5055 0.875236
5060 0.872223
5065 0.869192
5070 0.866712
5075 0.865274
5080 0.865196
5085 0.866646
5090 0.869509
5095 0.873421
5100 0.877814
5105 0.882028
5110 0.885355
5115 0.887171
5120 0.887107
5125 0.884965
5130 0.880927
5135 0.875671
5140 0.869987
5145 0.864687
5150 0.860517
5155 0.858163
5160 0.857974
5165 0.860128
5170 0.864557
5175 0.870868
5180 0.878511
5185 0.886779
5190 0.894956
5195 0.902303
5200 0.908264
5205 0.912356
5210 0.91451
5215 0.914933
5220 0.913875
5225 0.911653
5230 0.908573
5235 0.904919
5240 0.900841
5245 0.896463
5250 0.891604
5255 0.886026
5260 0.879564
5265 0.87218
5270 0.863992
5275 0.85527
5280 0.846546
5285 0.838414
5290 0.83165
5295 0.826926
5300 0.824905
5305 0.82597
5310 0.830336
5315 0.837862
5320 0.848073
5325 0.860153
5330 0.873133
5335 0.885799
5340 0.896769
5345 0.904961
5350 0.909727
5355 0.910814
5360 0.908657
5365 0.904027
5370 0.897855
5375 0.891017
5380 0.884236
5385 0.877823
5390 0.871663
5395 0.865222
5400 0.857611
5405 0.847852
5410 0.835221
5415 0.819353
5420 0.80041
5425 0.779145
5430 0.756835
5435 0.735083
5440 0.715485
5445 0.699652
5450 0.688885
5455 0.683868
5460 0.684764
5465 0.690935
5470 0.701009
5475 0.71302
5480 0.724463
5485 0.732634
5490 0.735259
5495 0.731055
5500 0.719773
5505 0.702507
5510 0.681364
5515 0.659067
5520 0.638225
5525 0.621061
5530 0.608828
5535 0.601558
5540 0.598267
5545 0.596781
5550 0.593982
5555 0.586339
5560 0.570938
5565 0.546283
5570 0.512879
5575 0.472882
5580 0.429405
5585 0.385787
5590 0.344879
5595 0.308516
5600 0.27715
5605 0.250454
5610 0.22747
5615 0.206924
5620 0.187682
5625 0.168916
5630 0.150199
5635 0.131562
5640 0.11329
5645 0.0959978
5650 0.0803823
5655 0.0668086
5660 0.0554583
5665 0.0462133
5670 0.0388462
5675 0.0330967
5680 0.0286686
5685 0.025291
5690 0.0226829
5695 0.0205319
5700 0.0187245
5705 0.0171235
5710 0.0156205
5715 0.0141525
5720 0.0126776
5725 0.0112021
5730 0.00975463
5735 0.00836913
5740 0.00709614
5745 0.00596609
5750 0.00495845
5755 0.00358789
5760 0.00186908
5765 0.000408221
