@MEASUREMENT_RADIUS 0 cm
# lambda : Angstroms 
# tr : transmission ([0,1]) 
# end
6647.82 0
6652.82 0.0004654
6657.82 0.00138107
6662.82 0.00235216
6667.82 0.0033711
6672.82 0.00366096
6677.82 0.0038813
6682.82 0.00411872
6687.82 0.00437101
6692.82 0.00464197
6697.82 0.00493286
6702.82 0.00524397
6707.82 0.00557825
6712.82 0.00593606
6717.82 0.00631827
6722.82 0.00672768
6727.82 0.00716542
6732.82 0.00763349
6737.82 0.00813564
6742.82 0.00867507
6747.82 0.00926252
6752.82 0.00989458
6757.82 0.0105714
6762.82 0.0112968
6767.82 0.0120705
6772.82 0.0129038
6777.82 0.0138045
6782.82 0.0147728
6787.82 0.0158191
6792.82 0.0169455
6797.82 0.0181579
6802.82 0.0194679
6807.82 0.0208749
6812.82 0.0223907
6817.82 0.0240287
6822.82 0.0257903
6827.82 0.0277026
6832.82 0.0297706
6837.82 0.0320039
6842.82 0.0344287
6847.82 0.0370514
6852.82 0.0398967
6857.82 0.0429995
6862.82 0.0463784
6867.82 0.0500498
6872.82 0.0540246
6877.82 0.0582955
6882.82 0.0629008
6887.82 0.0678729
6892.82 0.0732499
6897.82 0.0790853
6902.82 0.0853895
6907.82 0.0921889
6912.82 0.0995575
6917.82 0.107504
6922.82 0.116117
6927.82 0.125462
6932.82 0.135551
6937.82 0.146458
6942.82 0.158204
6947.82 0.170758
6952.82 0.184212
6957.82 0.198545
6962.82 0.213832
6967.82 0.23023
6972.82 0.247699
6977.82 0.266306
6982.82 0.286015
6987.82 0.306653
6992.82 0.328309
6997.82 0.350924
7002.82 0.374371
7007.82 0.398751
7012.82 0.423862
7017.82 0.449638
7022.82 0.476052
7027.82 0.502764
7032.82 0.529721
7037.82 0.556756
7042.82 0.583612
7047.82 0.610262
7052.82 0.636513
7057.82 0.662107
7062.82 0.687125
7067.82 0.711255
7072.82 0.734407
7077.82 0.756611
7082.82 0.777591
7087.82 0.797383
7092.82 0.815864
7097.82 0.832851
7102.82 0.848444
7107.82 0.862594
7112.82 0.875343
7117.82 0.88685
7122.82 0.897111
7127.82 0.90622
7132.82 0.914288
7137.82 0.921343
7142.82 0.927487
7147.82 0.932792
7152.82 0.937323
7157.82 0.941169
7162.82 0.944391
7167.82 0.94707
7172.82 0.949262
7177.82 0.951042
7182.82 0.952432
7187.82 0.953538
7192.82 0.954381
7197.82 0.954997
7202.82 0.95548
7207.82 0.955773
7212.82 0.955957
7217.82 0.956038
7222.82 0.956029
7227.82 0.955985
7232.82 0.95593
7237.82 0.955874
7242.82 0.955812
7247.82 0.955755
7252.82 0.955674
7257.82 0.955645
7262.82 0.955633
7267.82 0.955643
7272.82 0.955686
7277.82 0.955711
7282.82 0.955782
7287.82 0.955895
7292.82 0.956032
7297.82 0.9562
7302.82 0.956402
7307.82 0.95664
7312.82 0.956863
7317.82 0.957117
7322.82 0.957377
7327.82 0.957613
7332.82 0.957878
7337.82 0.95813
7342.82 0.958327
7347.82 0.958545
7352.82 0.958737
7357.82 0.958883
7362.82 0.959034
7367.82 0.959152
7372.82 0.959216
7377.82 0.959251
7382.82 0.959277
7387.82 0.959239
7392.82 0.959195
7397.82 0.959104
7402.82 0.958932
7407.82 0.958694
7412.82 0.958396
7417.82 0.958055
7422.82 0.957649
7427.82 0.957194
7432.82 0.956691
7437.82 0.956128
7442.82 0.955516
7447.82 0.954888
7452.82 0.954211
7457.82 0.953482
7462.82 0.952703
7467.82 0.951876
7472.82 0.951037
7477.82 0.950196
7482.82 0.949339
7487.82 0.948438
7492.82 0.947478
7497.82 0.946531
7502.82 0.945569
7507.82 0.944607
7512.82 0.943663
7517.82 0.942683
7522.82 0.941711
7527.82 0.940758
7532.82 0.939834
7537.82 0.938919
7542.82 0.938043
7547.82 0.937194
7552.82 0.936339
7557.82 0.935541
7562.82 0.93482
7567.82 0.934141
7572.82 0.933527
7577.82 0.932986
7582.82 0.932473
7587.82 0.932023
7592.82 0.931677
7597.82 0.931367
7602.82 0.931123
7607.82 0.930967
7612.82 0.930862
7617.82 0.930863
7622.82 0.930956
7627.82 0.931129
7632.82 0.93139
7637.82 0.931692
7642.82 0.932077
7647.82 0.932521
7652.82 0.933061
7657.82 0.933757
7662.82 0.934498
7667.82 0.935331
7672.82 0.936246
7677.82 0.93719
7682.82 0.938233
7687.82 0.939359
7692.82 0.940487
7697.82 0.941674
7702.82 0.942931
7707.82 0.944217
7712.82 0.945584
7717.82 0.947028
7722.82 0.948478
7727.82 0.94995
7732.82 0.95144
7737.82 0.95294
7742.82 0.954476
7747.82 0.956012
7752.82 0.957605
7757.82 0.959175
7762.82 0.960685
7767.82 0.962173
7772.82 0.963596
7777.82 0.965046
7782.82 0.966461
7787.82 0.967802
7792.82 0.969059
7797.82 0.970227
7802.82 0.971269
7807.82 0.97232
7812.82 0.973316
7817.82 0.974228
7822.82 0.975109
7827.82 0.975864
7832.82 0.976497
7837.82 0.977057
7842.82 0.977516
7847.82 0.977882
7852.82 0.978178
7857.82 0.978366
7862.82 0.97844
7867.82 0.978428
7872.82 0.978283
7877.82 0.978045
7882.82 0.977779
7887.82 0.977386
7892.82 0.976945
7897.82 0.97648
7902.82 0.975858
7907.82 0.975184
7912.82 0.97452
7917.82 0.973821
7922.82 0.973105
7927.82 0.972383
7932.82 0.971625
7937.82 0.970832
7942.82 0.970027
7947.82 0.969247
7952.82 0.968449
7957.82 0.967675
7962.82 0.966951
7967.82 0.966245
7972.82 0.965572
7977.82 0.964935
7982.82 0.964304
7987.82 0.963728
7992.82 0.963256
7997.82 0.962859
8002.82 0.962542
8007.82 0.962325
8012.82 0.962168
8017.82 0.962063
8022.82 0.962086
8027.82 0.962248
8032.82 0.96244
8037.82 0.962623
8042.82 0.962811
8047.82 0.962882
8052.82 0.962947
8057.82 0.963032
8062.82 0.963112
8067.82 0.963203
8072.82 0.963261
8077.82 0.963292
8082.82 0.963295
8087.82 0.963247
8092.82 0.963141
8097.82 0.962951
8102.82 0.962674
8107.82 0.962298
8112.82 0.961803
8117.82 0.961181
8122.82 0.960412
8127.82 0.959439
8132.82 0.95828
8137.82 0.956934
8142.82 0.955391
8147.82 0.953668
8152.82 0.951745
8157.82 0.949549
8162.82 0.947084
8167.82 0.944335
8172.82 0.941338
8177.82 0.938134
8182.82 0.934726
8187.82 0.931089
8192.82 0.92715
8197.82 0.922886
8202.82 0.918366
8207.82 0.913634
8212.82 0.908773
8217.82 0.903782
8222.82 0.898593
8227.82 0.89317
8232.82 0.887529
8237.82 0.881764
8242.82 0.875958
8247.82 0.870179
8252.82 0.864397
8257.82 0.858515
8262.82 0.852569
8267.82 0.846645
8272.82 0.840817
8277.82 0.835179
8282.82 0.82976
8287.82 0.824465
8292.82 0.819247
8297.82 0.814136
8302.82 0.809244
8307.82 0.80461
8312.82 0.800297
8317.82 0.796284
8322.82 0.792489
8327.82 0.788905
8332.82 0.785554
8337.82 0.782469
8342.82 0.779667
8347.82 0.777139
8352.82 0.774812
8357.82 0.772614
8362.82 0.770513
8367.82 0.768474
8372.82 0.766457
8377.82 0.764416
8382.82 0.762258
8387.82 0.759822
8392.82 0.756996
8397.82 0.753699
8402.82 0.74984
8407.82 0.745345
8412.82 0.74015
8417.82 0.734052
8422.82 0.726769
8427.82 0.718178
8432.82 0.708283
8437.82 0.697083
8442.82 0.684627
8447.82 0.670906
8452.82 0.655619
8457.82 0.638512
8462.82 0.619709
8467.82 0.599539
8472.82 0.57828
8477.82 0.556096
8482.82 0.533011
8487.82 0.508843
8492.82 0.483566
8497.82 0.457709
8502.82 0.431938
8507.82 0.406669
8512.82 0.381871
8517.82 0.357392
8522.82 0.333153
8527.82 0.30924
8532.82 0.285998
8537.82 0.263977
8542.82 0.243428
8547.82 0.224077
8552.82 0.205666
8557.82 0.188197
8562.82 0.171781
8567.82 0.156529
8572.82 0.142702
8577.82 0.130256
8582.82 0.118886
8587.82 0.108336
8592.82 0.0986372
8597.82 0.08979
8602.82 0.0817529
8607.82 0.0746167
8612.82 0.068231
8617.82 0.062392
8622.82 0.0570126
8627.82 0.0521199
8632.82 0.0477172
8637.82 0.0437734
8642.82 0.0402512
8647.82 0.0370786
8652.82 0.0341602
8657.82 0.0314628
8662.82 0.028991
8667.82 0.0267542
8672.82 0.0247486
8677.82 0.0229418
8682.82 0.0212814
8687.82 0.0197414
8692.82 0.0183143
8697.82 0.0170027
8702.82 0.0158092
8707.82 0.0147362
8712.82 0.0137529
8717.82 0.0128394
8722.82 0.0119879
8727.82 0.0111965
8732.82 0.010463
8737.82 0.00979392
8742.82 0.00918808
8747.82 0.00862717
8752.82 0.00809893
8757.82 0.00760767
8762.82 0.0071544
8767.82 0.00673415
8772.82 0.00635044
8777.82 0.00600161
8782.82 0.0056652
8787.82 0.0053459
8792.82 0.00504931
8797.82 0.00477308
8802.82 0.00451908
8807.82 0.00429617
8812.82 0.00408941
8817.82 0.00389234
8822.82 0.00369809
8827.82 0.00344529
8832.82 0.00263023
8837.82 0.00186631
8842.82 0.00113696
8847.82 0.000455724
8852.82 0
