@MEASUREMENT_RADIUS 2.3 cm
# lambda : Angstroms 
# tr : transmission ([0,1]) 
# end
6647.82 0
6652.82 0.000455046
6657.82 0.00136526
6662.82 0.00232489
6667.82 0.00333099
6672.82 0.00361466
6677.82 0.00383011
6682.82 0.004061
6687.82 0.00430861
6692.82 0.00457788
6697.82 0.00486553
6702.82 0.00517125
6707.82 0.00550137
6712.82 0.00585233
6717.82 0.00622717
6722.82 0.00662894
6727.82 0.0070543
6732.82 0.00751319
6737.82 0.00800794
6742.82 0.008538
6747.82 0.00911518
6752.82 0.00973187
6757.82 0.0103937
6762.82 0.011106
6767.82 0.0118654
6772.82 0.0126853
6777.82 0.0135718
6782.82 0.0145224
6787.82 0.0155512
6792.82 0.0166565
6797.82 0.0178412
6802.82 0.0191244
6807.82 0.0205024
6812.82 0.0219854
6817.82 0.0235936
6822.82 0.0253208
6827.82 0.0271957
6832.82 0.0292218
6837.82 0.0314066
6842.82 0.0337826
6847.82 0.03635
6852.82 0.0391399
6857.82 0.0421784
6862.82 0.0454833
6867.82 0.0490798
6872.82 0.0529684
6877.82 0.0571493
6882.82 0.0616545
6887.82 0.0665161
6892.82 0.0717742
6897.82 0.0774829
6902.82 0.0836557
6907.82 0.0903181
6912.82 0.0975389
6917.82 0.105321
6922.82 0.113761
6927.82 0.122925
6932.82 0.132819
6937.82 0.143521
6942.82 0.155047
6947.82 0.167367
6952.82 0.180575
6957.82 0.194643
6962.82 0.209651
6967.82 0.225763
6972.82 0.242939
6977.82 0.261244
6982.82 0.280656
6987.82 0.301014
6992.82 0.322414
6997.82 0.344788
7002.82 0.368019
7007.82 0.392216
7012.82 0.417159
7017.82 0.442791
7022.82 0.46908
7027.82 0.495709
7032.82 0.522665
7037.82 0.549769
7042.82 0.576739
7047.82 0.603534
7052.82 0.62996
7057.82 0.655799
7062.82 0.68111
7067.82 0.70559
7072.82 0.729097
7077.82 0.751668
7082.82 0.773023
7087.82 0.793196
7092.82 0.812109
7097.82 0.829549
7102.82 0.845595
7107.82 0.860162
7112.82 0.873325
7117.82 0.885189
7122.82 0.895794
7127.82 0.905247
7132.82 0.913604
7137.82 0.920953
7142.82 0.927367
7147.82 0.932932
7152.82 0.937684
7157.82 0.94173
7162.82 0.945117
7167.82 0.94794
7172.82 0.950248
7177.82 0.952097
7182.82 0.953546
7187.82 0.954679
7192.82 0.955532
7197.82 0.956192
7202.82 0.95665
7207.82 0.956922
7212.82 0.957106
7217.82 0.957164
7222.82 0.957159
7227.82 0.957114
7232.82 0.957016
7237.82 0.956891
7242.82 0.956746
7247.82 0.956606
7252.82 0.956473
7257.82 0.95637
7262.82 0.956297
7267.82 0.956268
7272.82 0.956253
7277.82 0.956265
7282.82 0.956333
7287.82 0.956407
7292.82 0.956504
7297.82 0.956628
7302.82 0.956778
7307.82 0.95699
7312.82 0.957232
7317.82 0.95749
7322.82 0.957761
7327.82 0.958013
7332.82 0.958236
7337.82 0.95849
7342.82 0.958665
7347.82 0.958849
7352.82 0.959066
7357.82 0.959221
7362.82 0.959399
7367.82 0.959551
7372.82 0.959648
7377.82 0.959702
7382.82 0.959732
7387.82 0.959699
7392.82 0.959671
7397.82 0.959633
7402.82 0.959522
7407.82 0.959345
7412.82 0.959098
7417.82 0.95879
7422.82 0.958451
7427.82 0.958075
7432.82 0.957617
7437.82 0.95712
7442.82 0.956576
7447.82 0.955993
7452.82 0.955393
7457.82 0.954715
7462.82 0.953992
7467.82 0.953231
7472.82 0.952448
7477.82 0.95166
7482.82 0.950856
7487.82 0.949986
7492.82 0.949049
7497.82 0.948111
7502.82 0.947118
7507.82 0.946149
7512.82 0.945187
7517.82 0.944218
7522.82 0.943262
7527.82 0.942307
7532.82 0.941378
7537.82 0.940447
7542.82 0.939531
7547.82 0.938656
7552.82 0.937785
7557.82 0.936947
7562.82 0.936178
7567.82 0.935446
7572.82 0.934759
7577.82 0.934141
7582.82 0.933573
7587.82 0.933047
7592.82 0.932594
7597.82 0.932188
7602.82 0.931833
7607.82 0.931566
7612.82 0.931401
7617.82 0.931327
7622.82 0.931323
7627.82 0.931421
7632.82 0.931575
7637.82 0.931768
7642.82 0.93208
7647.82 0.932466
7652.82 0.932944
7657.82 0.933536
7662.82 0.934181
7667.82 0.934882
7672.82 0.935668
7677.82 0.936524
7682.82 0.937464
7687.82 0.9385
7692.82 0.939578
7697.82 0.940706
7702.82 0.941896
7707.82 0.943141
7712.82 0.944442
7717.82 0.945798
7722.82 0.947204
7727.82 0.948648
7732.82 0.950104
7737.82 0.951585
7742.82 0.953116
7747.82 0.954633
7752.82 0.956173
7757.82 0.95772
7762.82 0.959231
7767.82 0.960747
7772.82 0.962227
7777.82 0.963715
7782.82 0.965144
7787.82 0.966479
7792.82 0.96777
7797.82 0.969009
7802.82 0.970183
7807.82 0.971337
7812.82 0.972409
7817.82 0.973376
7822.82 0.974296
7827.82 0.975129
7832.82 0.975892
7837.82 0.976598
7842.82 0.977167
7847.82 0.977619
7852.82 0.977987
7857.82 0.978241
7862.82 0.978413
7867.82 0.978512
7872.82 0.978484
7877.82 0.978387
7882.82 0.978224
7887.82 0.977956
7892.82 0.977644
7897.82 0.977232
7902.82 0.976704
7907.82 0.976179
7912.82 0.975567
7917.82 0.974929
7922.82 0.974261
7927.82 0.973486
7932.82 0.972729
7937.82 0.97194
7942.82 0.971129
7947.82 0.970346
7952.82 0.969543
7957.82 0.968749
7962.82 0.967981
7967.82 0.967227
7972.82 0.966489
7977.82 0.965777
7982.82 0.965095
7987.82 0.964468
7992.82 0.963898
7997.82 0.963379
8002.82 0.962916
8007.82 0.962539
8012.82 0.962258
8017.82 0.962084
8022.82 0.962061
8027.82 0.962198
8032.82 0.962339
8037.82 0.962473
8042.82 0.962592
8047.82 0.962608
8052.82 0.962626
8057.82 0.962682
8062.82 0.962735
8067.82 0.962807
8072.82 0.96286
8077.82 0.962892
8082.82 0.962914
8087.82 0.962902
8092.82 0.962847
8097.82 0.962727
8102.82 0.962537
8107.82 0.962258
8112.82 0.961881
8117.82 0.961397
8122.82 0.960777
8127.82 0.959982
8132.82 0.959016
8137.82 0.957873
8142.82 0.95656
8147.82 0.95508
8152.82 0.953414
8157.82 0.951513
8162.82 0.949349
8167.82 0.9469
8172.82 0.944213
8177.82 0.941304
8182.82 0.938189
8187.82 0.934861
8192.82 0.931228
8197.82 0.927268
8202.82 0.923034
8207.82 0.918571
8212.82 0.913956
8217.82 0.909198
8222.82 0.904244
8227.82 0.899028
8232.82 0.893589
8237.82 0.888009
8242.82 0.882357
8247.82 0.876709
8252.82 0.871033
8257.82 0.865227
8262.82 0.859333
8267.82 0.853417
8272.82 0.847558
8277.82 0.841851
8282.82 0.836328
8287.82 0.830908
8292.82 0.825542
8297.82 0.820254
8302.82 0.815154
8307.82 0.810269
8312.82 0.805678
8317.82 0.801368
8322.82 0.797273
8327.82 0.79336
8332.82 0.789676
8337.82 0.786268
8342.82 0.78315
8347.82 0.780338
8352.82 0.777773
8357.82 0.775385
8362.82 0.773138
8367.82 0.771016
8372.82 0.769001
8377.82 0.76705
8382.82 0.765079
8387.82 0.762955
8392.82 0.760571
8397.82 0.757849
8402.82 0.754705
8407.82 0.751071
8412.82 0.746885
8417.82 0.741952
8422.82 0.736007
8427.82 0.728914
8432.82 0.720646
8437.82 0.711149
8442.82 0.700453
8447.82 0.688572
8452.82 0.675186
8457.82 0.660005
8462.82 0.643114
8467.82 0.624768
8472.82 0.605177
8477.82 0.584542
8482.82 0.562878
8487.82 0.539947
8492.82 0.515692
8497.82 0.490577
8502.82 0.465181
8507.82 0.439882
8512.82 0.414766
8517.82 0.389708
8522.82 0.36463
8527.82 0.33972
8532.82 0.315396
8537.82 0.292147
8542.82 0.270268
8547.82 0.249532
8552.82 0.229664
8557.82 0.210687
8562.82 0.192748
8567.82 0.175978
8572.82 0.160657
8577.82 0.146776
8582.82 0.134034
8587.82 0.122182
8592.82 0.111259
8597.82 0.101279
8602.82 0.0921974
8607.82 0.0841023
8612.82 0.0768542
8617.82 0.070249
8622.82 0.0641654
8627.82 0.0586259
8632.82 0.0536353
8637.82 0.0491486
8642.82 0.0451392
8647.82 0.0415313
8652.82 0.0382144
8657.82 0.035152
8662.82 0.0323489
8667.82 0.0298178
8672.82 0.0275524
8677.82 0.0255134
8682.82 0.023649
8687.82 0.0219237
8692.82 0.0203168
8697.82 0.0188425
8702.82 0.017503
8707.82 0.0163
8712.82 0.0152033
8717.82 0.0141834
8722.82 0.0132328
8727.82 0.0123499
8732.82 0.0115312
8737.82 0.0107857
8742.82 0.010108
8747.82 0.00947874
8752.82 0.00888742
8757.82 0.00833375
8762.82 0.00782343
8767.82 0.00735339
8772.82 0.00693105
8777.82 0.00654388
8782.82 0.00617493
8787.82 0.00582383
8792.82 0.00549909
8797.82 0.00519262
8802.82 0.00491829
8807.82 0.00467
8812.82 0.00443956
8817.82 0.00421127
8822.82 0.00399086
8827.82 0.00377645
8832.82 0.00358096
8837.82 0.00336458
8842.82 0.00260323
8847.82 0.00186157
8852.82 0.00116215
8857.82 0.000493295
8862.82 0
