@MEASUREMENT_RADIUS 11.7 cm
# lambda : Angstroms 
# tr : transmission ([0,1]) 
# end
6606.21 5.33909e-06
6611.21 0.000434532
6616.21 0.00132877
6621.21 0.00227559
6626.21 0.00324263
6631.21 0.00356652
6636.21 0.00379001
6641.21 0.00403017
6646.21 0.00428681
6651.21 0.00455895
6656.21 0.00484765
6661.21 0.00515665
6666.21 0.00548772
6671.21 0.00584186
6676.21 0.00621959
6681.21 0.00662399
6686.21 0.00705636
6691.21 0.00752328
6696.21 0.00802735
6701.21 0.00856869
6706.21 0.00915348
6711.21 0.00977989
6716.21 0.0104518
6721.21 0.0111763
6726.21 0.0119523
6731.21 0.0127874
6736.21 0.0136887
6741.21 0.0146617
6746.21 0.0157214
6751.21 0.0168672
6756.21 0.0181
6761.21 0.0194323
6766.21 0.0208647
6771.21 0.0224115
6776.21 0.0240867
6781.21 0.0258923
6786.21 0.0278488
6791.21 0.0299679
6796.21 0.0322578
6801.21 0.0347412
6806.21 0.0374253
6811.21 0.0403244
6816.21 0.043471
6821.21 0.046871
6826.21 0.0505604
6831.21 0.054573
6836.21 0.0589138
6841.21 0.0636375
6846.21 0.0687616
6851.21 0.074322
6856.21 0.0803863
6861.21 0.0869965
6866.21 0.0941896
6871.21 0.101984
6876.21 0.110368
6881.21 0.119375
6886.21 0.129075
6891.21 0.13952
6896.21 0.150784
6901.21 0.162904
6906.21 0.175888
6911.21 0.189824
6916.21 0.20473
6921.21 0.220664
6926.21 0.237741
6931.21 0.255924
6936.21 0.275255
6941.21 0.295714
6946.21 0.317183
6951.21 0.339664
6956.21 0.363071
6961.21 0.387319
6966.21 0.412514
6971.21 0.438538
6976.21 0.465286
6981.21 0.492634
6986.21 0.52025
6991.21 0.547975
6996.21 0.575712
7001.21 0.60317
7006.21 0.630277
7011.21 0.656903
7016.21 0.682794
7021.21 0.707903
7026.21 0.731996
7031.21 0.75491
7036.21 0.776674
7041.21 0.797122
7046.21 0.816231
7051.21 0.833976
7056.21 0.850243
7061.21 0.865171
7066.21 0.878777
7071.21 0.89102
7076.21 0.902054
7081.21 0.91183
7086.21 0.920453
7091.21 0.92803
7096.21 0.934544
7101.21 0.940107
7106.21 0.944784
7111.21 0.948642
7116.21 0.951813
7121.21 0.954385
7126.21 0.956424
7131.21 0.957986
7136.21 0.959124
7141.21 0.959892
7146.21 0.960364
7151.21 0.960581
7156.21 0.960588
7161.21 0.960425
7166.21 0.960119
7171.21 0.959706
7176.21 0.959194
7181.21 0.958589
7186.21 0.957944
7191.21 0.957277
7196.21 0.956596
7201.21 0.955958
7206.21 0.955313
7211.21 0.954731
7216.21 0.954185
7221.21 0.95367
7226.21 0.953216
7231.21 0.952779
7236.21 0.952386
7241.21 0.952052
7246.21 0.95176
7251.21 0.951546
7256.21 0.951412
7261.21 0.95134
7266.21 0.951321
7271.21 0.951325
7276.21 0.951355
7281.21 0.951423
7286.21 0.951531
7291.21 0.951688
7296.21 0.951866
7301.21 0.95206
7306.21 0.952306
7311.21 0.952587
7316.21 0.952907
7321.21 0.953266
7326.21 0.953584
7331.21 0.953884
7336.21 0.954202
7341.21 0.9545
7346.21 0.954806
7351.21 0.955121
7356.21 0.955364
7361.21 0.955572
7366.21 0.955741
7371.21 0.9559
7376.21 0.956049
7381.21 0.956211
7386.21 0.956309
7391.21 0.956338
7396.21 0.956324
7401.21 0.956263
7406.21 0.95615
7411.21 0.956011
7416.21 0.955825
7421.21 0.955579
7426.21 0.955315
7431.21 0.954989
7436.21 0.954585
7441.21 0.954147
7446.21 0.953675
7451.21 0.953172
7456.21 0.952635
7461.21 0.952054
7466.21 0.95141
7471.21 0.950745
7476.21 0.950054
7481.21 0.94934
7486.21 0.948609
7491.21 0.947826
7496.21 0.947044
7501.21 0.946228
7506.21 0.9454
7511.21 0.944604
7516.21 0.943783
7521.21 0.942969
7526.21 0.942178
7531.21 0.941372
7536.21 0.940585
7541.21 0.93981
7546.21 0.939042
7551.21 0.93832
7556.21 0.937636
7561.21 0.937027
7566.21 0.936509
7571.21 0.936016
7576.21 0.935583
7581.21 0.935201
7586.21 0.934813
7591.21 0.934492
7596.21 0.934255
7601.21 0.934038
7606.21 0.933929
7611.21 0.933909
7616.21 0.933955
7621.21 0.934111
7626.21 0.934335
7631.21 0.934625
7636.21 0.934983
7641.21 0.935411
7646.21 0.9359
7651.21 0.936469
7656.21 0.937104
7661.21 0.937814
7666.21 0.938601
7671.21 0.939453
7676.21 0.940371
7681.21 0.941336
7686.21 0.942369
7691.21 0.943459
7696.21 0.944567
7701.21 0.945745
7706.21 0.94697
7711.21 0.94822
7716.21 0.949509
7721.21 0.950814
7726.21 0.95212
7731.21 0.953444
7736.21 0.954775
7741.21 0.956128
7746.21 0.957454
7751.21 0.958786
7756.21 0.960081
7761.21 0.961323
7766.21 0.96256
7771.21 0.963724
7776.21 0.964843
7781.21 0.965936
7786.21 0.966923
7791.21 0.967797
7796.21 0.968611
7801.21 0.969317
7806.21 0.969941
7811.21 0.970525
7816.21 0.970986
7821.21 0.971337
7826.21 0.971619
7831.21 0.971777
7836.21 0.971848
7841.21 0.9718
7846.21 0.971606
7851.21 0.971329
7856.21 0.970984
7861.21 0.97052
7866.21 0.969963
7871.21 0.969271
7876.21 0.968469
7881.21 0.967597
7886.21 0.966652
7891.21 0.965665
7896.21 0.964613
7901.21 0.963442
7906.21 0.962213
7911.21 0.960957
7916.21 0.959686
7921.21 0.958402
7926.21 0.957094
7931.21 0.955782
7936.21 0.954445
7941.21 0.953071
7946.21 0.951745
7951.21 0.95044
7956.21 0.949112
7961.21 0.947849
7966.21 0.946659
7971.21 0.945506
7976.21 0.944445
7981.21 0.943415
7986.21 0.942421
7991.21 0.941483
7996.21 0.940611
8001.21 0.939856
8006.21 0.939233
8011.21 0.938736
8016.21 0.938346
8021.21 0.938097
8026.21 0.938121
8031.21 0.938262
8036.21 0.938408
8041.21 0.938588
8046.21 0.938616
8051.21 0.938546
8056.21 0.938517
8061.21 0.938518
8066.21 0.938537
8071.21 0.938561
8076.21 0.938574
8081.21 0.938571
8086.21 0.938544
8091.21 0.938487
8096.21 0.938378
8101.21 0.938197
8106.21 0.937947
8111.21 0.937594
8116.21 0.937129
8121.21 0.936557
8126.21 0.935824
8131.21 0.934918
8136.21 0.933837
8141.21 0.932574
8146.21 0.931128
8151.21 0.929494
8156.21 0.927636
8161.21 0.925517
8166.21 0.92312
8171.21 0.920472
8176.21 0.917594
8181.21 0.914509
8186.21 0.911208
8191.21 0.907626
8196.21 0.903715
8201.21 0.899505
8206.21 0.895062
8211.21 0.890442
8216.21 0.885684
8221.21 0.880746
8226.21 0.875559
8231.21 0.870115
8236.21 0.864498
8241.21 0.858798
8246.21 0.853088
8251.21 0.847411
8256.21 0.841668
8261.21 0.835814
8266.21 0.829933
8271.21 0.824071
8276.21 0.81832
8281.21 0.812775
8286.21 0.807369
8291.21 0.802043
8296.21 0.796792
8301.21 0.791688
8306.21 0.786799
8311.21 0.78219
8316.21 0.777883
8321.21 0.773826
8326.21 0.769965
8331.21 0.766311
8336.21 0.762904
8341.21 0.759772
8346.21 0.756925
8351.21 0.754331
8356.21 0.751912
8361.21 0.749614
8366.21 0.747419
8371.21 0.745303
8376.21 0.743233
8381.21 0.74115
8386.21 0.738938
8391.21 0.736474
8396.21 0.733665
8401.21 0.73044
8406.21 0.726715
8411.21 0.722416
8416.21 0.717395
8421.21 0.71142
8426.21 0.704312
8431.21 0.696017
8436.21 0.686522
8441.21 0.675846
8446.21 0.663991
8451.21 0.650773
8456.21 0.635941
8461.21 0.61946
8466.21 0.601542
8471.21 0.58243
8476.21 0.562285
8481.21 0.541188
8486.21 0.519027
8491.21 0.495692
8496.21 0.471455
8501.21 0.446883
8506.21 0.422383
8511.21 0.398115
8516.21 0.374011
8521.21 0.349959
8526.21 0.326077
8531.21 0.30264
8536.21 0.280124
8541.21 0.25894
8546.21 0.238993
8551.21 0.220021
8556.21 0.20193
8561.21 0.184798
8566.21 0.168735
8571.21 0.153964
8576.21 0.140596
8581.21 0.128435
8586.21 0.117206
8591.21 0.106826
8596.21 0.0973024
8601.21 0.0886134
8606.21 0.080802
8611.21 0.0738559
8616.21 0.0675514
8621.21 0.0617686
8626.21 0.0564743
8631.21 0.0516805
8636.21 0.0473726
8641.21 0.0435139
8646.21 0.0400686
8651.21 0.0369215
8656.21 0.0340053
8661.21 0.0313168
8666.21 0.0288686
8671.21 0.026664
8676.21 0.0246905
8681.21 0.0229013
8686.21 0.0212522
8691.21 0.0197205
8696.21 0.0183054
8701.21 0.0170106
8706.21 0.0158413
8711.21 0.0147796
8716.21 0.0137992
8721.21 0.012889
8726.21 0.0120414
8731.21 0.0112544
8736.21 0.0105318
8741.21 0.00987035
8746.21 0.00926003
8751.21 0.00868993
8756.21 0.00815706
8761.21 0.00766372
8766.21 0.00721071
8771.21 0.00680051
8776.21 0.00642488
8781.21 0.00607262
8786.21 0.00573546
8791.21 0.00541625
8796.21 0.00512061
8801.21 0.00484444
8806.21 0.0045953
8811.21 0.00436946
8816.21 0.00415277
8821.21 0.00394223
8826.21 0.00374317
8831.21 0.00347063
8836.21 0.00290281
8841.21 0.00212676
8846.21 0.0013957
8851.21 0.000700589
8856.21 9.14823e-05
8861.21 0
