@MEASUREMENT_RADIUS 0 cm
# lambda : Angstroms 
# tr : transmission ([0,1]) 
# end
6225 0
6230 1.87149e-05
6235 7.71941e-05
6240 0.000110244
6245 0.000143143
6250 0.000139426
6255 0.000152711
6260 0.000122548
6265 0.000124329
6270 9.82381e-05
6275 9.06148e-05
6280 8.60217e-05
6285 9.7176e-05
6290 7.28447e-05
6295 8.39789e-05
6300 7.22295e-05
6305 9.57711e-05
6310 0.000108989
6315 0.000103814
6320 0.000108205
6325 0.000111582
6330 0.000117294
6335 0.000115614
6340 0.000140782
6345 0.000129605
6350 0.000118875
6355 0.00012494
6360 0.000114186
6365 0.000100808
6370 9.67633e-05
6375 8.48148e-05
6380 7.9144e-05
6385 0.000113883
6390 0.000135085
6395 0.000157964
6400 0.000143078
6405 0.000146513
6410 0.000139623
6415 0.000142471
6420 0.000125173
6425 0.000100185
6430 0.000100087
6435 0.000114005
6440 0.000132133
6445 0.000147115
6450 0.000175409
6455 0.000203795
6460 0.000214223
6465 0.000214134
6470 0.000195902
6475 0.000176288
6480 0.000190552
6485 0.000195469
6490 0.000222472
6495 0.000261708
6500 0.000267075
6505 0.0003224
6510 0.00032388
6515 0.000351618
6520 0.000386078
6525 0.000427509
6530 0.000457066
6535 0.000510781
6540 0.000575861
6545 0.000643191
6550 0.00070516
6555 0.000734081
6560 0.000815724
6565 0.000880746
6570 0.000972535
6575 0.00106795
6580 0.00113871
6585 0.00124001
6590 0.00133747
6595 0.00147237
6600 0.00162897
6605 0.00175638
6610 0.0019078
6615 0.0020669
6620 0.00227545
6625 0.00251809
6630 0.00273962
6635 0.00302417
6640 0.00334593
6645 0.00369871
6650 0.00413138
6655 0.00460127
6660 0.00515767
6665 0.00582093
6670 0.00660548
6675 0.00750945
6680 0.0085563
6685 0.00976138
6690 0.0111477
6695 0.0127721
6700 0.0146375
6705 0.0168249
6710 0.0193266
6715 0.0221479
6720 0.0253536
6725 0.0289288
6730 0.0329503
6735 0.0374365
6740 0.0424216
6745 0.0479395
6750 0.054062
6755 0.0608294
6760 0.0684059
6765 0.0769006
6770 0.0863891
6775 0.0971274
6780 0.109254
6785 0.123145
6790 0.139093
6795 0.157399
6800 0.17836
6805 0.202281
6810 0.229462
6815 0.260253
6820 0.294943
6825 0.333442
6830 0.375572
6835 0.42075
6840 0.468345
6845 0.517146
6850 0.566271
6855 0.614145
6860 0.659419
6865 0.701258
6870 0.738592
6875 0.771351
6880 0.799204
6885 0.822608
6890 0.84193
6895 0.857718
6900 0.870749
6905 0.881252
6910 0.890111
6915 0.897403
6920 0.903622
6925 0.908845
6930 0.913263
6935 0.91701
6940 0.920309
6945 0.923106
6950 0.925577
6955 0.927689
6960 0.929358
6965 0.930895
6970 0.931997
6975 0.933207
6980 0.934231
6985 0.935273
6990 0.93629
6995 0.937333
7000 0.938553
7005 0.939745
7010 0.94114
7015 0.942248
7020 0.943499
7025 0.944655
7030 0.945868
7035 0.947078
7040 0.948151
7045 0.949033
7050 0.949537
7055 0.949952
7060 0.950051
7065 0.950104
7070 0.94984
7075 0.949507
7080 0.948878
7085 0.948377
7090 0.947769
7095 0.947125
7100 0.946497
7105 0.945748
7110 0.945351
7115 0.944832
7120 0.944732
7125 0.944625
7130 0.944746
7135 0.944924
7140 0.945236
7145 0.945656
7150 0.946058
7155 0.946696
7160 0.947248
7165 0.947863
7170 0.948339
7175 0.948851
7180 0.949094
7185 0.949363
7190 0.949397
7195 0.949237
7200 0.949024
7205 0.948627
7210 0.9481
7215 0.947429
7220 0.946734
7225 0.945591
7230 0.944793
7235 0.943715
7240 0.942788
7245 0.942002
7250 0.941118
7255 0.940413
7260 0.939683
7265 0.939209
7270 0.938582
7275 0.93834
7280 0.937937
7285 0.937819
7290 0.937748
7295 0.937671
7300 0.937601
7305 0.937603
7310 0.937768
7315 0.937752
7320 0.938135
7325 0.938068
7330 0.938203
7335 0.938171
7340 0.93829
7345 0.93834
7350 0.938415
7355 0.938586
7360 0.938526
7365 0.938896
7370 0.938932
7375 0.939358
7380 0.939395
7385 0.939796
7390 0.940024
7395 0.940292
7400 0.940798
7405 0.941013
7410 0.941585
7415 0.94183
7420 0.94222
7425 0.94228
7430 0.94255
7435 0.942463
7440 0.942401
7445 0.94215
7450 0.941655
7455 0.941149
7460 0.940403
7465 0.939502
7470 0.938179
7475 0.937073
7480 0.935459
7485 0.934298
7490 0.932849
7495 0.931445
7500 0.930145
7505 0.928657
7510 0.927466
7515 0.926036
7520 0.925067
7525 0.923835
7530 0.923159
7535 0.922329
7540 0.921991
7545 0.921758
7550 0.921518
7555 0.921709
7560 0.921815
7565 0.922371
7570 0.922843
7575 0.92388
7580 0.924549
7585 0.925566
7590 0.926461
7595 0.927467
7600 0.928549
7605 0.92959
7610 0.930716
7615 0.931612
7620 0.932674
7625 0.933255
7630 0.934159
7635 0.934516
7640 0.935128
7645 0.935379
7650 0.935677
7655 0.935946
7660 0.935891
7665 0.936027
7670 0.935691
7675 0.935644
7680 0.935123
7685 0.93504
7690 0.934457
7695 0.933981
7700 0.933459
7705 0.932561
7710 0.931982
7715 0.931093
7720 0.930364
7725 0.929257
7730 0.928415
7735 0.927226
7740 0.926121
7745 0.924695
7750 0.923348
7755 0.921852
7760 0.920362
7765 0.919086
7770 0.91744
7775 0.916102
7780 0.914236
7785 0.912898
7790 0.911251
7795 0.909938
7800 0.908667
7805 0.907415
7810 0.90642
7815 0.905345
7820 0.904786
7825 0.904031
7830 0.903832
7835 0.903458
7840 0.903472
7845 0.903457
7850 0.903799
7855 0.904256
7860 0.904859
7865 0.90581
7870 0.906541
7875 0.907779
7880 0.908754
7885 0.91016
7890 0.911284
7895 0.912736
7900 0.913862
7905 0.915117
7910 0.916381
7915 0.917322
7920 0.918702
7925 0.919264
7930 0.920215
7935 0.920549
7940 0.921062
7945 0.921321
7950 0.921646
7955 0.921738
7960 0.921628
7965 0.921561
7970 0.92113
7975 0.921093
7980 0.920567
7985 0.920389
7990 0.919832
7995 0.919385
8000 0.918741
8005 0.918166
8010 0.917493
8015 0.91676
8020 0.916334
8025 0.915605
8030 0.915451
8035 0.914794
8040 0.914501
8045 0.913977
8050 0.913595
8055 0.913122
8060 0.912729
8065 0.912436
8070 0.911866
8075 0.911823
8080 0.91124
8085 0.911023
8090 0.910375
8095 0.909876
8100 0.909262
8105 0.908776
8110 0.908341
8115 0.907779
8120 0.907433
8125 0.906604
8130 0.906185
8135 0.905344
8140 0.904859
8145 0.904047
8150 0.903517
8155 0.902915
8160 0.902301
8165 0.901791
8170 0.901231
8175 0.900956
8180 0.900263
8185 0.900173
8190 0.899588
8195 0.89957
8200 0.89932
8205 0.89929
8210 0.899336
8215 0.899243
8220 0.899318
8225 0.899028
8230 0.899148
8235 0.898632
8240 0.898473
8245 0.897733
8250 0.897016
8255 0.896013
8260 0.894701
8265 0.893183
8270 0.891212
8275 0.889316
8280 0.886698
8285 0.884296
8290 0.8813
8295 0.878441
8300 0.875084
8305 0.871812
8310 0.868466
8315 0.865301
8320 0.862343
8325 0.859562
8330 0.857621
8335 0.855728
8340 0.854872
8345 0.854159
8350 0.85434
8355 0.854786
8360 0.855383
8365 0.856171
8370 0.856438
8375 0.855996
8380 0.853677
8385 0.849358
8390 0.841229
8395 0.829095
8400 0.811427
8405 0.787985
8410 0.757811
8415 0.721011
8420 0.678182
8425 0.629892
8430 0.578087
8435 0.524
8440 0.469945
8445 0.417118
8450 0.367254
8455 0.320824
8460 0.278823
8465 0.241295
8470 0.208162
8475 0.179301
8480 0.154199
8485 0.132661
8490 0.114126
8495 0.0983075
8500 0.0848369
8505 0.0733289
8510 0.0635352
8515 0.0551872
8520 0.0480712
8525 0.0419361
8530 0.0367196
8535 0.0322043
8540 0.0283038
8545 0.0249319
8550 0.0219966
8555 0.019438
8560 0.0171981
8565 0.0152772
8570 0.0135652
8575 0.0120747
8580 0.0107609
8585 0.00961431
8590 0.00859224
8595 0.00769584
8600 0.00689597
8605 0.00618297
8610 0.00555037
8615 0.0049744
8620 0.0044808
8625 0.00402907
8630 0.00363412
8635 0.00326383
8640 0.00295031
8645 0.00266248
8650 0.00241505
8655 0.00218221
8660 0.00198684
8665 0.00180574
8670 0.00164043
8675 0.00150546
8680 0.00138346
8685 0.00125566
8690 0.00117088
8695 0.00108493
8700 0.00100308
8705 0.00093118
8710 0.000852872
8715 0.000771628
8720 0.000694722
8725 0.000529578
8730 0.000363961
8735 0.000224971
8740 9.72528e-05
8745 0
