@MEASUREMENT_RADIUS 4 cm
# lambda : Angstroms 
# tr : transmission ([0,1]) 
# end
6225 0
6230 4.8265e-06
6235 2.17944e-05
6240 4.13389e-05
6245 9.79033e-05
6250 0.000141353
6255 0.000132962
6260 0.000136287
6265 8.43855e-05
6270 9.45826e-05
6275 7.90165e-05
6280 7.25553e-05
6285 9.29646e-05
6290 0.000100134
6295 0.000134065
6300 0.000154682
6305 0.000153634
6310 0.000139571
6315 0.000100465
6320 0.000116944
6325 0.000122212
6330 0.000139717
6335 0.000139504
6340 0.000134698
6345 0.000177096
6350 0.000170503
6355 0.000195215
6360 0.000155051
6365 0.000125999
6370 0.000106105
6375 8.92847e-05
6380 0.000107848
6385 0.000124892
6390 0.000124215
6395 0.00011373
6400 9.65964e-05
6405 8.96896e-05
6410 0.000109733
6415 0.000104299
6420 0.000132367
6425 0.000142654
6430 0.000124995
6435 0.000104789
6440 0.000105411
6445 0.000116938
6450 0.000155698
6455 0.000170828
6460 0.000190037
6465 0.000180373
6470 0.00019449
6475 0.000191009
6480 0.000240976
6485 0.000270702
6490 0.000281206
6495 0.000276883
6500 0.000257555
6505 0.0002673
6510 0.000282336
6515 0.000337271
6520 0.000362038
6525 0.000368292
6530 0.000405515
6535 0.000449955
6540 0.000522423
6545 0.000581769
6550 0.00065763
6555 0.000696922
6560 0.000767628
6565 0.000833612
6570 0.000886906
6575 0.000965395
6580 0.00106118
6585 0.00118583
6590 0.00133251
6595 0.00147063
6600 0.00160784
6605 0.00172263
6610 0.00186435
6615 0.00203675
6620 0.00222085
6625 0.00244147
6630 0.00266361
6635 0.00292056
6640 0.00324156
6645 0.00358293
6650 0.0040029
6655 0.00447553
6660 0.00503522
6665 0.00568722
6670 0.00642807
6675 0.00728194
6680 0.00830166
6685 0.00946642
6690 0.0108165
6695 0.0123844
6700 0.0141789
6705 0.0162493
6710 0.0186582
6715 0.0213936
6720 0.0245052
6725 0.0279895
6730 0.0319525
6735 0.0363536
6740 0.0412452
6745 0.0466503
6750 0.0526329
6755 0.0592832
6760 0.0666981
6765 0.0749755
6770 0.084158
6775 0.0945699
6780 0.10633
6785 0.11983
6790 0.135287
6795 0.152979
6800 0.173227
6805 0.196326
6810 0.222652
6815 0.252529
6820 0.286262
6825 0.323828
6830 0.365123
6835 0.409638
6840 0.456735
6845 0.505382
6850 0.554673
6855 0.603005
6860 0.649115
6865 0.691996
6870 0.730505
6875 0.764477
6880 0.793517
6885 0.817926
6890 0.838269
6895 0.854844
6900 0.868477
6905 0.879504
6910 0.888641
6915 0.896105
6920 0.902515
6925 0.907908
6930 0.912492
6935 0.916472
6940 0.919853
6945 0.922735
6950 0.925218
6955 0.927321
6960 0.928952
6965 0.930549
6970 0.931653
6975 0.93295
6980 0.933983
6985 0.934924
6990 0.93602
6995 0.936966
7000 0.9382
7005 0.939302
7010 0.940538
7015 0.941683
7020 0.943066
7025 0.944279
7030 0.945588
7035 0.946809
7040 0.947761
7045 0.948824
7050 0.949352
7055 0.949816
7060 0.949975
7065 0.950008
7070 0.949822
7075 0.949584
7080 0.949052
7085 0.94857
7090 0.948056
7095 0.947419
7100 0.946873
7105 0.945994
7110 0.945428
7115 0.944856
7120 0.944725
7125 0.944728
7130 0.944877
7135 0.944978
7140 0.94514
7145 0.945531
7150 0.945882
7155 0.946533
7160 0.947029
7165 0.947607
7170 0.948117
7175 0.948717
7180 0.949069
7185 0.94946
7190 0.94958
7195 0.94933
7200 0.949248
7205 0.948801
7210 0.948374
7215 0.94774
7220 0.946988
7225 0.945872
7230 0.945093
7235 0.944093
7240 0.94318
7245 0.942393
7250 0.941329
7255 0.940705
7260 0.939872
7265 0.939393
7270 0.938805
7275 0.938406
7280 0.93793
7285 0.937761
7290 0.937628
7295 0.937489
7300 0.937665
7305 0.937583
7310 0.937831
7315 0.937821
7320 0.938122
7325 0.938143
7330 0.938266
7335 0.938325
7340 0.938336
7345 0.938407
7350 0.938421
7355 0.938716
7360 0.93867
7365 0.939034
7370 0.939051
7375 0.939263
7380 0.939326
7385 0.939669
7390 0.939871
7395 0.940115
7400 0.940612
7405 0.940775
7410 0.941462
7415 0.941626
7420 0.942042
7425 0.942132
7430 0.942324
7435 0.942477
7440 0.942479
7445 0.942355
7450 0.941865
7455 0.941429
7460 0.940543
7465 0.939789
7470 0.938604
7475 0.937527
7480 0.936074
7485 0.934742
7490 0.933308
7495 0.931887
7500 0.930606
7505 0.929133
7510 0.928008
7515 0.926465
7520 0.925465
7525 0.9242
7530 0.92332
7535 0.92247
7540 0.921986
7545 0.921721
7550 0.92139
7555 0.921565
7560 0.921478
7565 0.921973
7570 0.922431
7575 0.923415
7580 0.924181
7585 0.925138
7590 0.926052
7595 0.926992
7600 0.928105
7605 0.929196
7610 0.930388
7615 0.931234
7620 0.932453
7625 0.933043
7630 0.934
7635 0.93448
7640 0.934999
7645 0.935423
7650 0.935686
7655 0.936005
7660 0.93591
7665 0.9361
7670 0.93567
7675 0.935788
7680 0.935382
7685 0.935192
7690 0.934777
7695 0.934164
7700 0.933641
7705 0.932772
7710 0.932202
7715 0.931225
7720 0.93053
7725 0.929387
7730 0.928616
7735 0.927446
7740 0.926301
7745 0.925006
7750 0.923629
7755 0.922234
7760 0.920778
7765 0.919566
7770 0.917819
7775 0.916558
7780 0.914782
7785 0.91342
7790 0.9118
7795 0.910297
7800 0.908994
7805 0.90761
7810 0.906641
7815 0.905496
7820 0.904907
7825 0.904015
7830 0.903683
7835 0.903218
7840 0.903139
7845 0.903185
7850 0.903445
7855 0.904044
7860 0.904577
7865 0.905398
7870 0.905976
7875 0.907196
7880 0.908053
7885 0.909543
7890 0.910795
7895 0.912102
7900 0.91346
7905 0.914639
7910 0.91594
7915 0.916935
7920 0.918264
7925 0.918818
7930 0.919865
7935 0.92029
7940 0.920834
7945 0.921214
7950 0.921456
7955 0.921723
7960 0.921529
7965 0.921582
7970 0.92117
7975 0.921048
7980 0.920513
7985 0.920353
7990 0.919811
7995 0.919399
8000 0.918901
8005 0.918121
8010 0.917528
8015 0.916715
8020 0.916233
8025 0.915535
8030 0.915339
8035 0.914671
8040 0.914419
8045 0.913891
8050 0.913388
8055 0.913068
8060 0.912578
8065 0.912412
8070 0.911934
8075 0.911927
8080 0.911296
8085 0.911131
8090 0.910448
8095 0.909905
8100 0.909382
8105 0.908796
8110 0.908507
8115 0.907932
8120 0.907717
8125 0.906969
8130 0.906503
8135 0.905614
8140 0.905082
8145 0.904217
8150 0.90368
8155 0.90322
8160 0.902521
8165 0.902126
8170 0.901469
8175 0.901191
8180 0.900492
8185 0.900342
8190 0.8998
8195 0.899714
8200 0.899498
8205 0.899415
8210 0.899545
8215 0.89932
8220 0.899355
8225 0.898967
8230 0.899099
8235 0.898741
8240 0.898667
8245 0.898055
8250 0.897354
8255 0.896338
8260 0.894963
8265 0.893618
8270 0.891742
8275 0.889982
8280 0.887476
8285 0.8851
8290 0.88215
8295 0.879336
8300 0.87607
8305 0.872793
8310 0.869513
8315 0.866169
8320 0.863209
8325 0.860233
8330 0.85814
8335 0.856078
8340 0.854947
8345 0.85405
8350 0.854002
8355 0.854337
8360 0.854799
8365 0.855741
8370 0.856245
8375 0.856406
8380 0.854975
8385 0.852012
8390 0.845699
8395 0.835718
8400 0.820811
8405 0.800365
8410 0.773408
8415 0.739725
8420 0.699817
8425 0.653765
8430 0.603616
8435 0.550318
8440 0.496192
8445 0.442584
8450 0.391266
8455 0.343067
8460 0.299008
8465 0.259381
8470 0.224091
8475 0.193239
8480 0.166231
8485 0.142992
8490 0.122977
8495 0.105898
8500 0.0912757
8505 0.078865
8510 0.0682853
8515 0.0592648
8520 0.0515874
8525 0.044994
8530 0.0393156
8535 0.034458
8540 0.0302531
8545 0.0266179
8550 0.0234635
8555 0.0207481
8560 0.0183737
8565 0.016312
8570 0.0144784
8575 0.0128794
8580 0.0114805
8585 0.0102225
8590 0.00912974
8595 0.00819669
8600 0.00733649
8605 0.00658082
8610 0.00588575
8615 0.00526994
8620 0.00471822
8625 0.00423886
8630 0.00381403
8635 0.00343576
8640 0.00310285
8645 0.00280518
8650 0.00254163
8655 0.00232233
8660 0.00212394
8665 0.00195049
8670 0.00178301
8675 0.00162211
8680 0.00146673
8685 0.00133525
8690 0.00120392
8695 0.00110751
8700 0.00102736
8705 0.000940162
8710 0.000886527
8715 0.000808608
8720 0.00073471
8725 0.00055948
8730 0.000396874
8735 0.000232368
8740 0.000101641
8745 0
