@MEASUREMENT_RADIUS 8 cm
# lambda : Angstroms 
# tr : transmission ([0,1]) 
# end
6225 0
6230 1.11663e-05
6235 6.24895e-05
6240 9.2347e-05
6245 0.000124743
6250 0.000122822
6255 9.63486e-05
6260 0.000105889
6265 8.6418e-05
6270 8.77257e-05
6275 8.74528e-05
6280 8.54173e-05
6285 8.94761e-05
6290 9.27921e-05
6295 9.78457e-05
6300 0.000111521
6305 0.000123034
6310 0.000155117
6315 0.000151073
6320 0.000153854
6325 0.000121503
6330 0.000102078
6335 8.75235e-05
6340 9.89336e-05
6345 9.75384e-05
6350 8.54783e-05
6355 8.57694e-05
6360 9.70444e-05
6365 9.50664e-05
6370 7.80669e-05
6375 6.96887e-05
6380 8.76197e-05
6385 0.000141887
6390 0.000153101
6395 0.000155653
6400 0.00012811
6405 0.000117036
6410 0.000125115
6415 0.000150507
6420 0.000145277
6425 0.000147152
6430 0.000156926
6435 0.000166919
6440 0.000178787
6445 0.000180414
6450 0.000175558
6455 0.000183764
6460 0.000193544
6465 0.000199655
6470 0.000216831
6475 0.000211053
6480 0.000220597
6485 0.000222053
6490 0.000226304
6495 0.000262833
6500 0.000305696
6505 0.000363765
6510 0.000403171
6515 0.000446196
6520 0.000471113
6525 0.00049651
6530 0.000515627
6535 0.000573781
6540 0.000637132
6545 0.000696576
6550 0.000776517
6555 0.000853392
6560 0.000937078
6565 0.00100953
6570 0.00107052
6575 0.00116104
6580 0.00127866
6585 0.00140713
6590 0.00155865
6595 0.00168122
6600 0.00184825
6605 0.00203065
6610 0.00223312
6615 0.00245736
6620 0.00268052
6625 0.00296211
6630 0.00325348
6635 0.00359285
6640 0.00401332
6645 0.00447091
6650 0.00503021
6655 0.00562785
6660 0.00632741
6665 0.00715942
6670 0.00814118
6675 0.00927958
6680 0.0106096
6685 0.0121599
6690 0.013967
6695 0.0160641
6700 0.0184766
6705 0.0212235
6710 0.0243758
6715 0.0279233
6720 0.0319154
6725 0.0363719
6730 0.0413063
6735 0.0467903
6740 0.0528538
6745 0.0595633
6750 0.0669813
6755 0.0751915
6760 0.0844128
6765 0.0948002
6770 0.106479
6775 0.119685
6780 0.134688
6785 0.151898
6790 0.171751
6795 0.194484
6800 0.220373
6805 0.249742
6810 0.282781
6815 0.319755
6820 0.360571
6825 0.404931
6830 0.4521
6835 0.501178
6840 0.55095
6845 0.600066
6850 0.647402
6855 0.691361
6860 0.731088
6865 0.766117
6870 0.79607
6875 0.82131
6880 0.842231
6885 0.85905
6890 0.87277
6895 0.883649
6900 0.892463
6905 0.899753
6910 0.905825
6915 0.911003
6920 0.915248
6925 0.918952
6930 0.921936
6935 0.924666
6940 0.926861
6945 0.92877
6950 0.930392
6955 0.931617
6960 0.932703
6965 0.93362
6970 0.934487
6975 0.935422
6980 0.93641
6985 0.937196
6990 0.938262
6995 0.9392
7000 0.940374
7005 0.94155
7010 0.942739
7015 0.943998
7020 0.945169
7025 0.946463
7030 0.947537
7035 0.94863
7040 0.949404
7045 0.950121
7050 0.950326
7055 0.950455
7060 0.950338
7065 0.94996
7070 0.949639
7075 0.94907
7080 0.948482
7085 0.947859
7090 0.947411
7095 0.946663
7100 0.946156
7105 0.945539
7110 0.945141
7115 0.945027
7120 0.945
7125 0.945281
7130 0.945402
7135 0.945799
7140 0.946169
7145 0.946803
7150 0.947329
7155 0.947983
7160 0.948575
7165 0.948982
7170 0.949522
7175 0.949757
7180 0.950033
7185 0.949986
7190 0.949885
7195 0.949424
7200 0.949066
7205 0.948511
7210 0.947809
7215 0.946968
7220 0.945882
7225 0.944707
7230 0.943626
7235 0.9428
7240 0.941806
7245 0.941216
7250 0.940333
7255 0.939726
7260 0.939107
7265 0.938626
7270 0.938328
7275 0.938088
7280 0.938071
7285 0.937971
7290 0.938151
7295 0.938062
7300 0.938241
7305 0.93829
7310 0.938445
7315 0.938585
7320 0.938796
7325 0.938974
7330 0.93895
7335 0.939113
7340 0.93905
7345 0.939183
7350 0.939204
7355 0.939502
7360 0.939549
7365 0.939789
7370 0.939972
7375 0.940084
7380 0.94039
7385 0.940665
7390 0.941068
7395 0.941252
7400 0.941774
7405 0.941924
7410 0.942418
7415 0.942693
7420 0.942851
7425 0.942972
7430 0.942924
7435 0.94295
7440 0.942555
7445 0.942226
7450 0.941402
7455 0.94067
7460 0.939684
7465 0.938613
7470 0.937418
7475 0.936098
7480 0.934693
7485 0.933181
7490 0.931802
7495 0.930193
7500 0.928955
7505 0.927537
7510 0.926431
7515 0.925228
7520 0.924291
7525 0.923498
7530 0.922862
7535 0.922575
7540 0.922287
7545 0.922404
7550 0.922346
7555 0.922728
7560 0.92304
7565 0.923759
7570 0.924579
7575 0.925666
7580 0.926798
7585 0.927819
7590 0.929025
7595 0.929838
7600 0.930955
7605 0.931841
7610 0.932847
7615 0.933714
7620 0.934599
7625 0.935194
7630 0.935687
7635 0.936112
7640 0.936277
7645 0.936657
7650 0.936651
7655 0.936764
7660 0.936525
7665 0.936338
7670 0.935936
7675 0.935636
7680 0.935247
7685 0.934726
7690 0.934297
7695 0.933449
7700 0.932897
7705 0.931896
7710 0.931096
7715 0.930097
7720 0.929114
7725 0.928076
7730 0.927083
7735 0.926049
7740 0.924705
7745 0.923506
7750 0.921919
7755 0.920517
7760 0.918997
7765 0.91769
7770 0.916185
7775 0.914858
7780 0.913391
7785 0.911982
7790 0.910708
7795 0.909267
7800 0.908324
7805 0.907176
7810 0.906467
7815 0.905681
7820 0.905216
7825 0.904801
7830 0.904555
7835 0.904559
7840 0.904587
7845 0.905098
7850 0.905515
7855 0.906391
7860 0.907199
7865 0.908182
7870 0.90903
7875 0.910152
7880 0.911318
7885 0.912564
7890 0.913993
7895 0.915259
7900 0.916592
7905 0.917619
7910 0.918892
7915 0.919743
7920 0.920839
7925 0.921474
7930 0.922134
7935 0.922487
7940 0.922575
7945 0.922853
7950 0.9228
7955 0.922976
7960 0.922673
7965 0.922554
7970 0.922065
7975 0.921713
7980 0.921225
7985 0.92084
7990 0.920468
7995 0.91986
8000 0.919511
8005 0.918752
8010 0.918268
8015 0.917574
8020 0.917153
8025 0.916751
8030 0.916503
8035 0.916162
8040 0.91579
8045 0.915475
8050 0.914872
8055 0.914635
8060 0.914191
8065 0.914027
8070 0.913632
8075 0.913509
8080 0.913074
8085 0.912642
8090 0.91221
8095 0.911588
8100 0.911193
8105 0.910583
8110 0.910255
8115 0.909587
8120 0.909172
8125 0.908413
8130 0.90782
8135 0.907167
8140 0.906526
8145 0.905989
8150 0.905317
8155 0.904934
8160 0.904266
8165 0.90389
8170 0.90338
8175 0.903138
8180 0.902717
8185 0.902438
8190 0.90216
8195 0.901867
8200 0.901779
8205 0.901509
8210 0.901575
8215 0.90133
8220 0.90127
8225 0.900943
8230 0.900783
8235 0.900303
8240 0.899687
8245 0.898883
8250 0.897597
8255 0.89635
8260 0.894567
8265 0.892805
8270 0.890545
8275 0.888304
8280 0.885534
8285 0.882731
8290 0.879802
8295 0.876689
8300 0.873594
8305 0.870354
8310 0.867407
8315 0.864465
8320 0.8621
8325 0.859965
8330 0.858549
8335 0.857592
8340 0.857251
8345 0.857489
8350 0.858141
8355 0.859277
8360 0.860166
8365 0.861216
8370 0.861304
8375 0.860249
8380 0.856909
8385 0.850708
8390 0.840405
8395 0.825143
8400 0.804243
8405 0.776929
8410 0.743124
8415 0.702727
8420 0.656997
8425 0.606607
8430 0.553657
8435 0.499509
8440 0.446138
8445 0.394924
8450 0.346889
8455 0.302852
8460 0.263146
8465 0.227904
8470 0.196825
8475 0.169782
8480 0.146297
8485 0.126092
8490 0.108752
8495 0.0939169
8500 0.0812689
8505 0.0704573
8510 0.0612093
8515 0.0532694
8520 0.0464862
8525 0.0406475
8530 0.0356492
8535 0.0313288
8540 0.0275906
8545 0.0243454
8550 0.0215176
8555 0.019022
8560 0.0168639
8565 0.0149738
8570 0.0132917
8575 0.011827
8580 0.0105521
8585 0.00941854
8590 0.00841139
8595 0.00752656
8600 0.00674999
8605 0.00606157
8610 0.0054387
8615 0.00488591
8620 0.0043897
8625 0.00394502
8630 0.00357216
8635 0.00322029
8640 0.00290618
8645 0.00264827
8650 0.00238728
8655 0.00216789
8660 0.00200696
8665 0.001822
8670 0.00165693
8675 0.001496
8680 0.00135349
8685 0.00121318
8690 0.00109978
8695 0.00101404
8700 0.000922696
8705 0.000852443
8710 0.000799419
8715 0.000736863
8720 0.000666572
8725 0.000526204
8730 0.000366223
8735 0.000225891
8740 9.21594e-05
8745 5.66966e-07
