@MEASUREMENT_RADIUS 12 cm
# lambda : Angstroms 
# tr : transmission ([0,1]) 
# end
6225 0
6230 8.65981e-06
6235 2.17188e-05
6240 3.17291e-05
6245 5.10499e-05
6250 5.05356e-05
6255 6.51023e-05
6260 8.16908e-05
6265 0.000114505
6270 0.000136862
6275 0.000140921
6280 0.000144452
6285 0.000147532
6290 0.000177765
6295 0.000184193
6300 0.000155966
6305 0.000148655
6310 0.000117114
6315 0.000129629
6320 0.000129505
6325 0.000117825
6330 9.24125e-05
6335 9.61632e-05
6340 0.000110779
6345 0.000148155
6350 0.000143963
6355 0.000128262
6360 0.000110631
6365 0.000100848
6370 0.00011515
6375 0.000134364
6380 0.000136682
6385 0.000150987
6390 0.000176697
6395 0.000203581
6400 0.000198084
6405 0.000192681
6410 0.000161996
6415 0.000163107
6420 0.000195151
6425 0.000204823
6430 0.000220217
6435 0.000229707
6440 0.000237147
6445 0.000272964
6450 0.000307591
6455 0.000325799
6460 0.000314094
6465 0.000307304
6470 0.000299734
6475 0.000328832
6480 0.000342274
6485 0.000364334
6490 0.000384944
6495 0.000411752
6500 0.00046011
6505 0.000515754
6510 0.00061634
6515 0.000697191
6520 0.000769328
6525 0.000844503
6530 0.000920247
6535 0.00103623
6540 0.00112632
6545 0.00122453
6550 0.00133553
6555 0.00144569
6560 0.00159267
6565 0.00174283
6570 0.00190858
6575 0.00208579
6580 0.00227404
6585 0.00250404
6590 0.0027461
6595 0.00300502
6600 0.00329271
6605 0.00362986
6610 0.00403369
6615 0.00451612
6620 0.00506611
6625 0.00568637
6630 0.00640931
6635 0.00723513
6640 0.00819756
6645 0.00938561
6650 0.0107679
6655 0.0123735
6660 0.0142226
6665 0.0163397
6670 0.018797
6675 0.0216095
6680 0.0248391
6685 0.0285003
6690 0.0326216
6695 0.0372594
6700 0.0423998
6705 0.0481033
6710 0.0544421
6715 0.0614286
6720 0.0691573
6725 0.0777095
6730 0.0871964
6735 0.09782
6740 0.109816
6745 0.123344
6750 0.138728
6755 0.156222
6760 0.176217
6765 0.199117
6770 0.225225
6775 0.254801
6780 0.288218
6785 0.32564
6790 0.367161
6795 0.412243
6800 0.460252
6805 0.510047
6810 0.560455
6815 0.610199
6820 0.657926
6825 0.702358
6830 0.742335
6835 0.777347
6840 0.80701
6845 0.831689
6850 0.851867
6855 0.868105
6860 0.88098
6865 0.891375
6870 0.899651
6875 0.906331
6880 0.911908
6885 0.916395
6890 0.92035
6895 0.9237
6900 0.926621
6905 0.929019
6910 0.931126
6915 0.932763
6920 0.934127
6925 0.935248
6930 0.93597
6935 0.936703
6940 0.937264
6945 0.937769
6950 0.938322
6955 0.93896
6960 0.939604
6965 0.940535
6970 0.941444
6975 0.942579
6980 0.94381
6985 0.944911
6990 0.946178
6995 0.947194
7000 0.948284
7005 0.949171
7010 0.950027
7015 0.950602
7020 0.951122
7025 0.951425
7030 0.951513
7035 0.951556
7040 0.951198
7045 0.950793
7050 0.950151
7055 0.949469
7060 0.948735
7065 0.948091
7070 0.947439
7075 0.947008
7080 0.946682
7085 0.946482
7090 0.94662
7095 0.946643
7100 0.946892
7105 0.947137
7110 0.947559
7115 0.948011
7120 0.94879
7125 0.949439
7130 0.950012
7135 0.950546
7140 0.950714
7145 0.950975
7150 0.951
7155 0.950894
7160 0.950664
7165 0.950254
7170 0.949618
7175 0.949006
7180 0.948183
7185 0.947318
7190 0.946481
7195 0.94542
7200 0.944627
7205 0.943763
7210 0.942977
7215 0.942184
7220 0.941453
7225 0.940689
7230 0.940275
7235 0.939984
7240 0.939617
7245 0.939573
7250 0.939362
7255 0.939475
7260 0.939576
7265 0.939726
7270 0.939877
7275 0.940124
7280 0.940289
7285 0.940583
7290 0.94088
7295 0.940972
7300 0.941184
7305 0.941221
7310 0.941308
7315 0.941409
7320 0.941554
7325 0.941559
7330 0.94165
7335 0.941645
7340 0.941726
7345 0.941877
7350 0.941999
7355 0.942382
7360 0.942611
7365 0.94297
7370 0.9432
7375 0.943378
7380 0.943462
7385 0.943643
7390 0.943725
7395 0.94371
7400 0.943793
7405 0.943485
7410 0.943336
7415 0.942853
7420 0.94225
7425 0.94149
7430 0.940666
7435 0.939644
7440 0.938522
7445 0.937203
7450 0.935674
7455 0.934298
7460 0.932807
7465 0.931365
7470 0.929969
7475 0.928634
7480 0.927361
7485 0.92641
7490 0.925555
7495 0.924919
7500 0.924556
7505 0.9242
7510 0.924281
7515 0.924386
7520 0.924737
7525 0.925146
7530 0.925658
7535 0.926304
7540 0.927169
7545 0.928057
7550 0.928977
7555 0.930076
7560 0.930998
7565 0.93215
7570 0.933199
7575 0.934213
7580 0.935028
7585 0.935797
7590 0.936341
7595 0.936818
7600 0.937223
7605 0.937452
7610 0.937731
7615 0.937755
7620 0.937807
7625 0.93757
7630 0.937296
7635 0.936818
7640 0.936369
7645 0.935833
7650 0.935327
7655 0.934823
7660 0.93409
7665 0.933503
7670 0.932699
7675 0.932008
7680 0.931214
7685 0.93043
7690 0.929536
7695 0.928619
7700 0.927616
7705 0.926521
7710 0.925506
7715 0.92433
7720 0.923278
7725 0.922078
7730 0.920913
7735 0.919575
7740 0.918184
7745 0.916748
7750 0.915454
7755 0.914205
7760 0.913076
7765 0.912113
7770 0.910988
7775 0.910125
7780 0.909231
7785 0.908648
7790 0.908153
7795 0.907815
7800 0.907691
7805 0.907765
7810 0.908035
7815 0.908384
7820 0.909049
7825 0.909617
7830 0.910418
7835 0.911289
7840 0.91219
7845 0.913184
7850 0.914295
7855 0.915435
7860 0.916646
7865 0.917838
7870 0.918797
7875 0.919853
7880 0.92065
7885 0.92152
7890 0.922273
7895 0.922929
7900 0.923466
7905 0.923933
7910 0.924273
7915 0.924418
7920 0.924669
7925 0.924445
7930 0.924312
7935 0.923907
7940 0.923402
7945 0.922914
7950 0.922492
7955 0.922039
7960 0.921562
7965 0.921058
7970 0.920531
7975 0.92014
7980 0.919627
7985 0.919407
7990 0.919095
7995 0.918799
8000 0.918555
8005 0.918218
8010 0.91779
8015 0.917432
8020 0.917124
8025 0.916836
8030 0.916728
8035 0.916401
8040 0.91618
8045 0.915825
8050 0.915371
8055 0.914992
8060 0.914677
8065 0.914243
8070 0.913799
8075 0.913398
8080 0.912705
8085 0.912109
8090 0.911326
8095 0.910599
8100 0.909855
8105 0.909086
8110 0.908384
8115 0.907696
8120 0.907042
8125 0.906339
8130 0.905804
8135 0.905195
8140 0.904742
8145 0.904239
8150 0.903882
8155 0.903608
8160 0.903294
8165 0.903056
8170 0.902902
8175 0.902713
8180 0.90248
8185 0.902388
8190 0.902077
8195 0.901849
8200 0.901443
8205 0.900948
8210 0.900392
8215 0.899597
8220 0.898545
8225 0.897296
8230 0.895887
8235 0.894057
8240 0.892138
8245 0.889794
8250 0.887213
8255 0.884454
8260 0.881506
8265 0.878541
8270 0.875624
8275 0.872747
8280 0.869972
8285 0.867509
8290 0.865242
8295 0.863556
8300 0.862246
8305 0.861517
8310 0.861279
8315 0.861624
8320 0.862329
8325 0.863426
8330 0.864673
8335 0.865589
8340 0.865938
8345 0.864741
8350 0.861575
8355 0.855282
8360 0.844891
8365 0.829555
8370 0.808386
8375 0.780751
8380 0.746524
8385 0.706067
8390 0.660024
8395 0.609871
8400 0.557034
8405 0.503346
8410 0.450233
8415 0.399157
8420 0.351213
8425 0.307041
8430 0.267099
8435 0.231545
8440 0.200278
8445 0.173039
8450 0.149498
8455 0.129199
8460 0.111776
8465 0.0968169
8470 0.0839692
8475 0.0729475
8480 0.0634738
8485 0.0553187
8490 0.0482851
8495 0.0422442
8500 0.0370362
8505 0.0325192
8510 0.0286321
8515 0.0252633
8520 0.0223311
8525 0.0197606
8530 0.0175294
8535 0.0155569
8540 0.0138172
8545 0.0122774
8550 0.0109307
8555 0.00973441
8560 0.00869905
8565 0.00778765
8570 0.00696135
8575 0.00625294
8580 0.00562077
8585 0.00503882
8590 0.0045242
8595 0.00407579
8600 0.00366604
8605 0.0033067
8610 0.0029907
8615 0.00270597
8620 0.00244164
8625 0.00222529
8630 0.00203971
8635 0.00186939
8640 0.00171503
8645 0.00156048
8650 0.00141427
8655 0.00127166
8660 0.00115428
8665 0.00106959
8670 0.000979809
8675 0.000887778
8680 0.000814677
8685 0.00075492
8690 0.000693935
8695 0.000661435
8700 0.000612895
8705 0.000574039
8710 0.000526837
8715 0.000496722
8720 0.000471948
8725 0.000390591
8730 0.000286824
8735 0.00018991
8740 8.2868e-05
8745 1.82816e-06
