@MEASUREMENT_RADIUS 14 cm
# lambda : Angstroms 
# tr : transmission ([0,1]) 
# end
6225 0
6230 1.07419e-05
6235 4.07121e-05
6240 6.70727e-05
6245 9.36133e-05
6250 9.05648e-05
6255 9.00683e-05
6260 0.000103071
6265 0.00010885
6270 9.68814e-05
6275 8.51767e-05
6280 5.60236e-05
6285 5.5983e-05
6290 5.69927e-05
6295 6.93111e-05
6300 7.95624e-05
6305 9.38886e-05
6310 0.000100045
6315 0.00010582
6320 0.000115178
6325 8.51664e-05
6330 6.54745e-05
6335 5.44655e-05
6340 7.68136e-05
6345 8.58639e-05
6350 0.000116462
6355 0.000130133
6360 0.000144405
6365 0.000158372
6370 0.000107254
6375 9.26831e-05
6380 8.47956e-05
6385 9.98155e-05
6390 0.000114195
6395 0.000156671
6400 0.000177866
6405 0.000173263
6410 0.000171321
6415 0.000152796
6420 0.000151192
6425 0.000151776
6430 0.000151247
6435 0.00016825
6440 0.000208219
6445 0.000241834
6450 0.000257147
6455 0.000247014
6460 0.000220337
6465 0.000214803
6470 0.000251702
6475 0.000321136
6480 0.000378772
6485 0.000400019
6490 0.000408683
6495 0.000433166
6500 0.000463939
6505 0.000513623
6510 0.000568567
6515 0.000615485
6520 0.00068481
6525 0.000761658
6530 0.000842503
6535 0.000946026
6540 0.00103881
6545 0.00113122
6550 0.00125581
6555 0.00135983
6560 0.00148798
6565 0.00162652
6570 0.00178022
6575 0.0019648
6580 0.002131
6585 0.00232233
6590 0.00254246
6595 0.00277646
6600 0.00304804
6605 0.00332989
6610 0.00365848
6615 0.0040649
6620 0.00455819
6625 0.00510615
6630 0.00574686
6635 0.00647227
6640 0.00732303
6645 0.00832271
6650 0.0094795
6655 0.0108408
6660 0.0124276
6665 0.0142881
6670 0.0164379
6675 0.0189043
6680 0.0217519
6685 0.0249993
6690 0.0286949
6695 0.0328984
6700 0.0375751
6705 0.0428102
6710 0.0486053
6715 0.0549942
6720 0.0620152
6725 0.0697717
6730 0.07835
6735 0.0879267
6740 0.0986212
6745 0.110603
6750 0.124107
6755 0.13939
6760 0.156864
6765 0.17682
6770 0.199585
6775 0.225514
6780 0.255036
6785 0.288377
6790 0.325893
6795 0.36731
6800 0.412369
6805 0.460302
6810 0.510148
6815 0.560808
6820 0.610817
6825 0.658993
6830 0.7037
6835 0.744073
6840 0.779212
6845 0.809138
6850 0.833853
6855 0.853969
6860 0.870009
6865 0.882793
6870 0.893047
6875 0.901163
6880 0.907941
6885 0.91328
6890 0.917983
6895 0.921827
6900 0.925231
6905 0.928014
6910 0.930428
6915 0.932355
6920 0.933809
6925 0.935069
6930 0.935856
6935 0.936631
6940 0.937073
6945 0.937578
6950 0.937917
6955 0.938372
6960 0.938773
6965 0.939229
6970 0.939876
6975 0.94055
6980 0.941566
6985 0.942459
6990 0.943707
6995 0.944691
7000 0.945869
7005 0.946842
7010 0.947837
7015 0.948693
7020 0.949318
7025 0.949948
7030 0.950191
7035 0.950539
7040 0.950494
7045 0.950407
7050 0.949952
7055 0.949513
7060 0.948898
7065 0.9483
7070 0.947713
7075 0.947074
7080 0.946649
7085 0.946244
7090 0.946183
7095 0.946003
7100 0.946067
7105 0.946044
7110 0.946286
7115 0.946634
7120 0.947203
7125 0.947883
7130 0.948358
7135 0.948949
7140 0.949183
7145 0.949479
7150 0.949568
7155 0.949661
7160 0.949639
7165 0.949521
7170 0.949201
7175 0.948691
7180 0.948122
7185 0.947261
7190 0.946478
7195 0.945414
7200 0.944612
7205 0.943707
7210 0.942949
7215 0.94217
7220 0.941312
7225 0.940388
7230 0.939612
7235 0.939131
7240 0.938625
7245 0.938646
7250 0.938477
7255 0.938625
7260 0.938719
7265 0.938943
7270 0.939136
7275 0.939354
7280 0.939638
7285 0.939831
7290 0.940158
7295 0.940252
7300 0.940533
7305 0.940586
7310 0.940754
7315 0.940832
7320 0.940987
7325 0.940993
7330 0.940946
7335 0.940954
7340 0.940837
7345 0.940981
7350 0.940967
7355 0.941238
7360 0.941325
7365 0.94159
7370 0.94181
7375 0.942049
7380 0.942246
7385 0.942445
7390 0.942649
7395 0.9426
7400 0.94275
7405 0.942545
7410 0.94254
7415 0.942261
7420 0.941875
7425 0.941383
7430 0.940798
7435 0.940152
7440 0.939235
7445 0.938212
7450 0.936804
7455 0.935566
7460 0.934131
7465 0.932752
7470 0.931324
7475 0.929969
7480 0.928574
7485 0.927344
7490 0.926331
7495 0.925333
7500 0.92473
7505 0.924121
7510 0.923881
7515 0.923718
7520 0.923814
7525 0.923983
7530 0.924322
7535 0.92486
7540 0.925551
7545 0.926516
7550 0.927285
7555 0.928305
7560 0.929098
7565 0.930101
7570 0.931097
7575 0.932146
7580 0.933032
7585 0.933779
7590 0.934423
7595 0.934875
7600 0.935477
7605 0.93584
7610 0.936246
7615 0.936324
7620 0.93638
7625 0.936209
7630 0.936041
7635 0.935692
7640 0.935323
7645 0.934919
7650 0.934351
7655 0.933927
7660 0.933264
7665 0.93271
7670 0.932031
7675 0.931489
7680 0.930868
7685 0.930319
7690 0.929648
7695 0.928843
7700 0.928044
7705 0.927022
7710 0.926246
7715 0.925254
7720 0.924352
7725 0.923326
7730 0.922307
7735 0.921171
7740 0.919976
7745 0.918764
7750 0.917518
7755 0.916358
7760 0.915143
7765 0.914088
7770 0.912883
7775 0.911877
7780 0.91086
7785 0.910032
7790 0.909267
7795 0.908604
7800 0.908221
7805 0.907904
7810 0.907835
7815 0.907796
7820 0.908059
7825 0.908292
7830 0.908795
7835 0.909422
7840 0.910167
7845 0.911019
7850 0.911919
7855 0.912941
7860 0.913941
7865 0.915046
7870 0.915996
7875 0.917077
7880 0.918027
7885 0.919047
7890 0.920031
7895 0.920901
7900 0.921652
7905 0.922196
7910 0.922684
7915 0.922993
7920 0.923365
7925 0.923395
7930 0.923438
7935 0.923204
7940 0.922836
7945 0.92248
7950 0.922109
7955 0.921752
7960 0.921291
7965 0.920886
7970 0.920404
7975 0.920097
7980 0.9197
7985 0.919461
7990 0.919224
7995 0.918978
8000 0.91873
8005 0.91845
8010 0.91814
8015 0.917738
8020 0.917476
8025 0.917188
8030 0.91702
8035 0.916769
8040 0.916539
8045 0.916254
8050 0.915925
8055 0.915591
8060 0.915259
8065 0.914863
8070 0.914391
8075 0.914023
8080 0.913412
8085 0.912832
8090 0.912141
8095 0.911364
8100 0.910567
8105 0.909786
8110 0.909068
8115 0.908335
8120 0.907694
8125 0.906881
8130 0.906223
8135 0.905461
8140 0.904758
8145 0.904107
8150 0.903552
8155 0.903097
8160 0.902695
8165 0.902328
8170 0.901976
8175 0.901714
8180 0.901418
8185 0.901343
8190 0.901185
8195 0.901069
8200 0.900918
8205 0.900729
8210 0.9005
8215 0.90012
8220 0.899554
8225 0.898743
8230 0.89783
8235 0.896557
8240 0.895185
8245 0.893517
8250 0.891569
8255 0.88936
8260 0.8869
8265 0.884247
8270 0.881441
8275 0.878664
8280 0.875783
8285 0.87309
8290 0.870432
8295 0.868045
8300 0.865886
8305 0.864085
8310 0.862774
8315 0.862036
8320 0.861743
8325 0.862029
8330 0.862904
8335 0.86397
8340 0.865264
8345 0.866263
8350 0.86668
8355 0.86578
8360 0.86282
8365 0.857024
8370 0.847474
8375 0.833171
8380 0.813366
8385 0.787597
8390 0.755307
8395 0.71695
8400 0.67302
8405 0.624699
8410 0.573296
8415 0.52038
8420 0.467593
8425 0.416279
8430 0.367668
8435 0.322582
8440 0.281645
8445 0.244946
8450 0.212505
8455 0.184043
8460 0.159317
8465 0.137908
8470 0.119422
8475 0.103488
8480 0.089753
8485 0.0779551
8490 0.0678019
8495 0.0590996
8500 0.0516209
8505 0.0451993
8510 0.0396373
8515 0.0348061
8520 0.0306377
8525 0.0270126
8530 0.0238781
8535 0.0211496
8540 0.0187526
8545 0.0166487
8550 0.0147945
8555 0.01316
8560 0.0117203
8565 0.0104583
8570 0.00935484
8575 0.00836168
8580 0.00749842
8585 0.00672811
8590 0.00604374
8595 0.00542793
8600 0.00488164
8605 0.00438726
8610 0.00394631
8615 0.00353814
8620 0.00318029
8625 0.0028753
8630 0.00261243
8635 0.00238372
8640 0.00217538
8645 0.00198118
8650 0.00178917
8655 0.00160794
8660 0.00144723
8665 0.00129772
8670 0.0011868
8675 0.00111165
8680 0.00103271
8685 0.000946178
8690 0.000874742
8695 0.000801303
8700 0.000709135
8705 0.000643189
8710 0.000610477
8715 0.000563584
8720 0.00049627
8725 0.00040623
8730 0.00028898
8735 0.000171174
8740 7.12853e-05
8745 3.74339e-06
