@MEASUREMENT_RADIUS 18 cm
# lambda : Angstroms 
# tr : transmission ([0,1]) 
# end
6225 2.17008e-07
6230 1.16003e-05
6235 4.45671e-05
6240 8.21158e-05
6245 0.00010474
6250 0.000103522
6255 8.95743e-05
6260 9.75107e-05
6265 0.000125084
6270 0.00014318
6275 0.000154995
6280 0.00016477
6285 0.000148621
6290 0.000126797
6295 0.000101176
6300 8.61194e-05
6305 8.81216e-05
6310 9.67311e-05
6315 9.16082e-05
6320 9.62279e-05
6325 0.000109062
6330 0.000112648
6335 0.000106653
6340 8.49721e-05
6345 9.34751e-05
6350 8.08671e-05
6355 9.92916e-05
6360 0.000102887
6365 0.000135308
6370 0.000167184
6375 0.000195477
6380 0.00017762
6385 0.000184448
6390 0.000148505
6395 0.000157442
6400 0.000177977
6405 0.000189333
6410 0.000184692
6415 0.000177359
6420 0.000177394
6425 0.000176065
6430 0.000201093
6435 0.000207617
6440 0.000210578
6445 0.000187292
6450 0.000193039
6455 0.000206494
6460 0.000243785
6465 0.000272606
6470 0.000286617
6475 0.000305032
6480 0.000345194
6485 0.000384121
6490 0.000419755
6495 0.000450919
6500 0.000485858
6505 0.000533199
6510 0.000581243
6515 0.000639109
6520 0.00070303
6525 0.000762097
6530 0.000826896
6535 0.000908478
6540 0.00101431
6545 0.00111933
6550 0.001236
6555 0.00136637
6560 0.00151615
6565 0.00166287
6570 0.00181532
6575 0.00195411
6580 0.0021143
6585 0.00229423
6590 0.00248844
6595 0.00271079
6600 0.00296206
6605 0.00324416
6610 0.00356621
6615 0.0039387
6620 0.00437705
6625 0.00488968
6630 0.00549862
6635 0.00616714
6640 0.00695569
6645 0.00786857
6650 0.00895594
6655 0.0102351
6660 0.0117353
6665 0.0134634
6670 0.0154974
6675 0.0178462
6680 0.0205439
6685 0.0236391
6690 0.0271442
6695 0.0311265
6700 0.0356086
6705 0.0406362
6710 0.0462255
6715 0.0523882
6720 0.0591842
6725 0.0666521
6730 0.0748816
6735 0.0840282
6740 0.0941882
6745 0.105513
6750 0.118237
6755 0.132627
6760 0.149061
6765 0.167784
6770 0.189222
6775 0.213571
6780 0.241351
6785 0.272877
6790 0.308496
6795 0.348204
6800 0.391685
6805 0.43851
6810 0.487652
6815 0.538384
6820 0.589074
6825 0.638648
6830 0.685197
6835 0.727845
6840 0.765505
6845 0.797873
6850 0.825026
6855 0.847146
6860 0.864994
6865 0.878982
6870 0.890277
6875 0.899041
6880 0.90644
6885 0.91222
6890 0.917273
6895 0.921568
6900 0.925249
6905 0.928536
6910 0.931184
6915 0.933616
6920 0.935309
6925 0.936852
6930 0.937671
6935 0.938385
6940 0.9387
6945 0.93898
6950 0.939203
6955 0.939245
6960 0.939437
6965 0.939397
6970 0.939688
6975 0.939864
6980 0.940512
6985 0.941026
6990 0.941895
6995 0.942686
7000 0.943658
7005 0.944773
7010 0.945747
7015 0.946822
7020 0.947523
7025 0.948465
7030 0.948981
7035 0.949681
7040 0.94986
7045 0.949944
7050 0.949815
7055 0.949398
7060 0.949025
7065 0.948411
7070 0.947995
7075 0.947231
7080 0.946779
7085 0.946189
7090 0.945919
7095 0.945617
7100 0.945448
7105 0.945371
7110 0.945288
7115 0.945634
7120 0.945952
7125 0.946549
7130 0.946797
7135 0.947216
7140 0.947317
7145 0.947543
7150 0.947743
7155 0.947845
7160 0.947968
7165 0.947764
7170 0.947573
7175 0.947042
7180 0.946585
7185 0.945754
7190 0.94509
7195 0.944219
7200 0.943453
7205 0.942736
7210 0.941868
7215 0.941156
7220 0.94015
7225 0.939429
7230 0.938672
7235 0.938307
7240 0.937911
7245 0.937938
7250 0.937896
7255 0.937969
7260 0.938257
7265 0.938426
7270 0.938833
7275 0.939089
7280 0.939552
7285 0.93985
7290 0.94031
7295 0.940512
7300 0.940765
7305 0.940933
7310 0.941059
7315 0.941288
7320 0.941288
7325 0.94132
7330 0.941094
7335 0.941037
7340 0.940733
7345 0.940693
7350 0.940465
7355 0.940368
7360 0.940295
7365 0.940173
7370 0.940231
7375 0.94007
7380 0.940149
7385 0.940072
7390 0.940211
7395 0.940173
7400 0.940302
7405 0.940275
7410 0.940284
7415 0.940277
7420 0.939986
7425 0.939758
7430 0.939201
7435 0.938729
7440 0.938042
7445 0.937352
7450 0.936383
7455 0.935444
7460 0.934376
7465 0.933116
7470 0.932002
7475 0.930651
7480 0.929449
7485 0.928166
7490 0.927193
7495 0.926219
7500 0.925611
7505 0.924973
7510 0.924509
7515 0.924238
7520 0.924002
7525 0.924129
7530 0.924219
7535 0.924629
7540 0.924997
7545 0.925625
7550 0.926154
7555 0.926925
7560 0.927661
7565 0.928529
7570 0.929524
7575 0.930364
7580 0.931208
7585 0.931779
7590 0.932378
7595 0.932762
7600 0.933269
7605 0.933612
7610 0.933946
7615 0.934091
7620 0.934071
7625 0.934037
7630 0.933761
7635 0.933515
7640 0.933067
7645 0.932683
7650 0.932179
7655 0.931751
7660 0.931156
7665 0.930579
7670 0.93012
7675 0.929602
7680 0.929273
7685 0.928816
7690 0.928412
7695 0.927865
7700 0.927373
7705 0.926773
7710 0.926296
7715 0.925789
7720 0.925213
7725 0.924681
7730 0.923973
7735 0.923266
7740 0.922335
7745 0.921477
7750 0.920458
7755 0.919465
7760 0.918558
7765 0.917602
7770 0.916573
7775 0.915493
7780 0.914482
7785 0.913391
7790 0.912486
7795 0.911616
7800 0.910907
7805 0.910283
7810 0.909865
7815 0.909545
7820 0.909397
7825 0.909377
7830 0.909395
7835 0.909664
7840 0.909884
7845 0.910308
7850 0.910792
7855 0.911435
7860 0.912174
7865 0.913026
7870 0.913842
7875 0.914642
7880 0.91549
7885 0.916327
7890 0.917354
7895 0.918224
7900 0.919061
7905 0.919724
7910 0.920277
7915 0.920757
7920 0.9212
7925 0.921493
7930 0.921588
7935 0.921651
7940 0.921466
7945 0.921412
7950 0.921327
7955 0.921184
7960 0.921002
7965 0.920761
7970 0.92046
7975 0.920218
7980 0.92003
7985 0.919852
7990 0.919754
7995 0.919581
8000 0.919378
8005 0.919112
8010 0.918782
8015 0.918486
8020 0.918317
8025 0.918247
8030 0.918163
8035 0.918035
8040 0.917793
8045 0.917529
8050 0.917117
8055 0.916716
8060 0.916367
8065 0.91591
8070 0.915567
8075 0.915203
8080 0.914651
8085 0.913986
8090 0.913218
8095 0.912331
8100 0.911498
8105 0.91064
8110 0.909725
8115 0.908788
8120 0.907845
8125 0.906841
8130 0.905939
8135 0.905063
8140 0.904248
8145 0.9035
8150 0.90284
8155 0.902294
8160 0.901742
8165 0.901258
8170 0.900895
8175 0.900551
8180 0.90021
8185 0.900031
8190 0.899939
8195 0.899888
8200 0.899947
8205 0.900027
8210 0.900079
8215 0.900026
8220 0.899755
8225 0.899471
8230 0.899115
8235 0.898545
8240 0.897855
8245 0.896921
8250 0.895654
8255 0.894112
8260 0.892273
8265 0.890182
8270 0.887893
8275 0.88542
8280 0.882768
8285 0.880059
8290 0.877405
8295 0.874794
8300 0.872238
8305 0.869862
8310 0.867783
8315 0.866058
8320 0.8647
8325 0.863956
8330 0.86384
8335 0.864221
8340 0.865154
8345 0.866424
8350 0.867876
8355 0.869047
8360 0.869525
8365 0.868732
8370 0.866092
8375 0.86074
8380 0.851898
8385 0.838701
8390 0.820102
8395 0.795735
8400 0.765217
8405 0.72864
8410 0.686483
8415 0.639641
8420 0.58943
8425 0.537216
8430 0.484651
8435 0.433217
8440 0.384221
8445 0.338484
8450 0.296605
8455 0.258815
8460 0.225133
8465 0.195436
8470 0.169421
8475 0.14681
8480 0.127233
8485 0.110299
8490 0.0957207
8495 0.0831794
8500 0.0723845
8505 0.0631141
8510 0.0551292
8515 0.0482627
8520 0.0423217
8525 0.037187
8530 0.0327483
8535 0.0288962
8540 0.0255421
8545 0.0226173
8550 0.020061
8555 0.0178153
8560 0.015842
8565 0.0140951
8570 0.0125412
8575 0.0111748
8580 0.0099674
8585 0.00891998
8590 0.00799392
8595 0.0071666
8600 0.00643985
8605 0.00579007
8610 0.00520174
8615 0.00467948
8620 0.00421313
8625 0.00380219
8630 0.00341964
8635 0.00308536
8640 0.00277423
8645 0.00250741
8650 0.00227005
8655 0.00206079
8660 0.0018758
8665 0.0017026
8670 0.00154137
8675 0.00138605
8680 0.00127243
8685 0.00116563
8690 0.00107768
8695 0.000995991
8700 0.00092661
8705 0.000852992
8710 0.000779993
8715 0.00071718
8720 0.000631256
8725 0.000527712
8730 0.000368467
8735 0.000232274
8740 0.000106528
8745 1.08419e-05
